Manaus - AM                    UNIVAP-03  <246> 1 Min. Reported data

 DD MM YYYY  HH MM   D(Deg)  H(nT)   Z(nT)   I(Deg)   F(nT)

 02 09 2016  00 00  -15.5160 26108.4   3424.7   7.4729 26332.0
 02 09 2016  00 01  -15.5169 26108.8   3425.3   7.4741 26332.5
 02 09 2016  00 02  -15.5181 26108.8   3424.9   7.4732 26332.5
 02 09 2016  00 03  -15.5196 26108.4   3424.1   7.4717 26332.0
 02 09 2016  00 04  -15.5207 26108.1   3423.7   7.4708 26331.6
 02 09 2016  00 05  -15.5216 26107.6   3423.8   7.4713 26331.1
 02 09 2016  00 06  -15.5230 26107.2   3423.0   7.4697 26330.6
 02 09 2016  00 07  -15.5237 26107.0   3423.3   7.4704 26330.5
 02 09 2016  00 08  -15.5247 26107.0   3423.7   7.4711 26330.5
 02 09 2016  00 09  -15.5253 26106.8   3423.7   7.4712 26330.4
 02 09 2016  00 10  -15.5264 26107.0   3422.6   7.4688 26330.4
 02 09 2016  00 11  -15.5272 26106.9   3422.7   7.4691 26330.3
 02 09 2016  00 12  -15.5278 26106.2   3423.3   7.4706 26329.6
 02 09 2016  00 13  -15.5275 26105.6   3423.4   7.4709 26329.1
 02 09 2016  00 14  -15.5276 26104.8   3421.7   7.4676 26328.2
 02 09 2016  00 15  -15.5285 26103.5   3422.2   7.4689 26326.9
 02 09 2016  00 16  -15.5295 26102.5   3420.8   7.4663 26325.7
 02 09 2016  00 17  -15.5293 26101.5   3422.0   7.4690 26324.8
 02 09 2016  00 18  -15.5303 26100.1   3420.8   7.4669 26323.4
 02 09 2016  00 19  -15.5302 26099.6   3420.6   7.4665 26322.8
 02 09 2016  00 20  -15.5303 26099.5   3421.2   7.4680 26322.8
 02 09 2016  00 21  -15.5306 26099.1   3422.6   7.4711 26322.5
 02 09 2016  00 22  -15.5305 26099.3   3422.5   7.4709 26322.7
 02 09 2016  00 23  -15.5295 26099.4   3422.1   7.4700 26322.8
 02 09 2016  00 24  -15.5284 26098.7   3422.9   7.4718 26322.2
 02 09 2016  00 25  -15.5281 26097.9   3421.9   7.4699 26321.3
 02 09 2016  00 26  -15.5289 26096.9   3421.9   7.4701 26320.3
 02 09 2016  00 27  -15.5275 26096.7   3422.7   7.4719 26320.2
 02 09 2016  00 28  -15.5274 26096.1   3421.4   7.4694 26319.4
 02 09 2016  00 29  -15.5275 26095.3   3421.0   7.4686 26318.6
 02 09 2016  00 30  -15.5279 26094.5   3421.6   7.4702 26317.9
 02 09 2016  00 31  -15.5287 26093.4   3422.1   7.4717 26316.9
 02 09 2016  00 32  -15.5291 26092.7   3420.9   7.4691 26316.0
 02 09 2016  00 33  -15.5288 26092.1   3420.9   7.4693 26315.4
 02 09 2016  00 34  -15.5286 26091.6   3421.3   7.4704 26314.9
 02 09 2016  00 35  -15.5295 26090.7   3422.0   7.4722 26314.2
 02 09 2016  00 36  -15.5298 26089.9   3420.8   7.4697 26313.2
 02 09 2016  00 37  -15.5288 26090.0   3421.6   7.4715 26313.4
 02 09 2016  00 38  -15.5286 26090.0   3421.6   7.4716 26313.4
 02 09 2016  00 39  -15.5293 26089.1   3421.3   7.4710 26312.4
 02 09 2016  00 40  -15.5297 26087.4   3420.9   7.4706 26310.8
 02 09 2016  00 41  -15.5307 26085.5   3421.9   7.4734 26309.0
 02 09 2016  00 42  -15.5315 26084.3   3421.5   7.4728 26307.7
 02 09 2016  00 43  -15.5320 26083.4   3420.7   7.4713 26306.7
 02 09 2016  00 44  -15.5330 26082.7   3421.6   7.4734 26306.2
 02 09 2016  00 45  -15.5346 26081.9   3421.2   7.4729 26305.3
 02 09 2016  00 46  -15.5358 26081.5   3420.0   7.4705 26304.7
 02 09 2016  00 47  -15.5357 26081.1   3420.9   7.4725 26304.5
 02 09 2016  00 48  -15.5365 26080.3   3420.7   7.4722 26303.7
 02 09 2016  00 49  -15.5374 26079.6   3420.7   7.4725 26302.9
 02 09 2016  00 50  -15.5374 26079.0   3421.7   7.4748 26302.5
 02 09 2016  00 51  -15.5372 26078.7   3421.5   7.4744 26302.2
 02 09 2016  00 52  -15.5367 26078.4   3422.4   7.4764 26302.0
 02 09 2016  00 53  -15.5369 26078.2   3420.9   7.4733 26301.6
 02 09 2016  00 54  -15.5380 26077.7   3421.5   7.4746 26301.2
 02 09 2016  00 55  -15.5388 26077.4   3421.7   7.4752 26301.0
 02 09 2016  00 56  -15.5389 26077.3   3421.5   7.4748 26300.8
 02 09 2016  00 57  -15.5388 26077.1   3421.7   7.4755 26300.6
 02 09 2016  00 58  -15.5404 26076.5   3422.2   7.4767 26300.1
 02 09 2016  00 59  -15.5410 26076.0   3421.6   7.4754 26299.5
 02 09 2016  01 00  -15.5416 26075.2   3422.5   7.4776 26298.8
 02 09 2016  01 01  -15.5422 26074.3   3421.8   7.4764 26297.9
 02 09 2016  01 02  -15.5442 26073.1   3420.9   7.4749 26296.5
 02 09 2016  01 03  -15.5451 26072.0   3419.6   7.4724 26295.3
 02 09 2016  01 04  -15.5460 26071.2   3420.3   7.4739 26294.6
 02 09 2016  01 05  -15.5461 26070.8   3420.4   7.4743 26294.2
 02 09 2016  01 06  -15.5466 26069.8   3421.3   7.4766 26293.3
 02 09 2016  01 07  -15.5476 26069.0   3420.5   7.4751 26292.4
 02 09 2016  01 08  -15.5482 26068.2   3421.5   7.4775 26291.8
 02 09 2016  01 09  -15.5484 26067.4   3421.1   7.4769 26291.0
 02 09 2016  01 10  -15.5477 26067.3   3421.0   7.4765 26290.8
 02 09 2016  01 11  -15.5480 26066.6   3421.0   7.4769 26290.1
 02 09 2016  01 12  -15.5483 26065.8   3421.5   7.4781 26289.4
 02 09 2016  01 13  -15.5479 26065.2   3422.6   7.4807 26288.9
 02 09 2016  01 14  -15.5478 26065.0   3422.4   7.4802 26288.7
 02 09 2016  01 15  -15.5483 26065.2   3421.6   7.4786 26288.9
 02 09 2016  01 16  -15.5474 26065.7   3422.9   7.4812 26289.4
 02 09 2016  01 17  -15.5472 26065.9   3422.8   7.4810 26289.7
 02 09 2016  01 18  -15.5479 26065.9   3422.6   7.4805 26289.6
 02 09 2016  01 19  -15.5474 26065.9   3422.9   7.4810 26289.6
 02 09 2016  01 20  -15.5471 26065.9   3423.4   7.4822 26289.7
 02 09 2016  01 21  -15.5475 26066.3   3423.0   7.4812 26290.1
 02 09 2016  01 22  -15.5484 26066.7   3423.2   7.4816 26290.6
 02 09 2016  01 23  -15.5497 26067.0   3423.2   7.4815 26290.8
 02 09 2016  01 24  -15.5505 26067.1   3423.1   7.4812 26290.9
 02 09 2016  01 25  -15.5512 26067.0   3423.2   7.4814 26290.9
 02 09 2016  01 26  -15.5519 26066.8   3422.9   7.4809 26290.6
 02 09 2016  01 27  -15.5527 26066.8   3422.9   7.4808 26290.6
 02 09 2016  01 28  -15.5537 26066.3   3422.4   7.4799 26290.0
 02 09 2016  01 29  -15.5537 26065.7   3422.3   7.4799 26289.4
 02 09 2016  01 30  -15.5536 26065.3   3422.5   7.4805 26289.0
 02 09 2016  01 31  -15.5538 26065.1   3422.3   7.4800 26288.8
 02 09 2016  01 32  -15.5541 26064.7   3422.7   7.4810 26288.4
 02 09 2016  01 33  -15.5545 26064.8   3422.6   7.4807 26288.5
 02 09 2016  01 34  -15.5540 26064.6   3423.5   7.4827 26288.5
 02 09 2016  01 35  -15.5546 26064.0   3422.4   7.4806 26287.7
 02 09 2016  01 36  -15.5550 26063.3   3422.7   7.4813 26287.1
 02 09 2016  01 37  -15.5565 26061.7   3422.9   7.4823 26285.5
 02 09 2016  01 38  -15.5563 26061.1   3422.9   7.4825 26284.9
 02 09 2016  01 39  -15.5564 26061.0   3422.1   7.4807 26284.7
 02 09 2016  01 40  -15.5564 26060.8   3421.7   7.4799 26284.5
 02 09 2016  01 41  -15.5554 26060.6   3422.7   7.4823 26284.5
 02 09 2016  01 42  -15.5548 26060.2   3422.8   7.4825 26284.0
 02 09 2016  01 43  -15.5547 26059.8   3421.4   7.4795 26283.5
 02 09 2016  01 44  -15.5542 26059.1   3421.9   7.4809 26282.8
 02 09 2016  01 45  -15.5532 26058.5   3422.4   7.4821 26282.3
 02 09 2016  01 46  -15.5503 26060.5   3424.0   7.4851 26284.5
 02 09 2016  01 47  -15.5492 26062.5   3424.7   7.4860 26286.5
 02 09 2016  01 48  -15.5483 26063.4   3425.2   7.4868 26287.5
 02 09 2016  01 49  -15.5468 26064.2   3425.1   7.4864 26288.2
 02 09 2016  01 50  -15.5456 26064.1   3425.4   7.4871 26288.3
 02 09 2016  01 51  -15.5440 26066.6   3426.2   7.4879 26290.8
 02 09 2016  01 52  -15.5420 26069.9   3427.8   7.4904 26294.3
 02 09 2016  01 53  -15.5400 26074.0   3429.6   7.4933 26298.6
 02 09 2016  01 54  -15.5389 26077.5   3430.4   7.4940 26302.1
 02 09 2016  01 55  -15.5386 26080.0   3430.6   7.4938 26304.7
 02 09 2016  01 56  -15.5382 26082.4   3430.3   7.4924 26307.0
 02 09 2016  01 57  -15.5373 26084.9   3430.9   7.4930 26309.6
 02 09 2016  01 58  -15.5381 26085.8   3430.3   7.4914 26310.3
 02 09 2016  01 59  -15.5375 26088.9   3430.1   7.4901 26313.4
 02 09 2016  02 00  -15.5369 26091.0   3430.8   7.4911 26315.6
 02 09 2016  02 01  -15.5357 26093.9   3431.6   7.4919 26318.6
 02 09 2016  02 02  -15.5347 26096.9   3432.0   7.4920 26321.6
 02 09 2016  02 03  -15.5337 26099.1   3431.7   7.4906 26323.7
 02 09 2016  02 04  -15.5340 26100.3   3430.5   7.4877 26324.8
 02 09 2016  02 05  -15.5346 26102.5   3430.6   7.4875 26327.0
 02 09 2016  02 06  -15.5346 26105.3   3430.8   7.4870 26329.8
 02 09 2016  02 07  -15.5348 26108.4   3431.4   7.4874 26332.9
 02 09 2016  02 08  -15.5353 26112.0   3431.6   7.4869 26336.5
 02 09 2016  02 09  -15.5367 26115.0   3432.0   7.4869 26339.5
 02 09 2016  02 10  -15.5372 26117.8   3431.4   7.4848 26342.3
 02 09 2016  02 11  -15.5375 26119.7   3431.4   7.4842 26344.1
 02 09 2016  02 12  -15.5371 26121.3   3430.4   7.4816 26345.6
 02 09 2016  02 13  -15.5382 26122.4   3430.5   7.4815 26346.6
 02 09 2016  02 14  -15.5382 26123.5   3429.7   7.4794 26347.7
 02 09 2016  02 15  -15.5385 26124.9   3428.9   7.4774 26349.0
 02 09 2016  02 16  -15.5389 26126.0   3428.0   7.4752 26349.9
 02 09 2016  02 17  -15.5387 26126.1   3426.8   7.4725 26349.9
 02 09 2016  02 18  -15.5375 26126.0   3427.6   7.4743 26349.8
 02 09 2016  02 19  -15.5371 26125.6   3426.4   7.4718 26349.4
 02 09 2016  02 20  -15.5377 26124.9   3425.8   7.4707 26348.6
 02 09 2016  02 21  -15.5368 26124.9   3425.9   7.4709 26348.5
 02 09 2016  02 22  -15.5370 26124.7   3425.4   7.4698 26348.3
 02 09 2016  02 23  -15.5383 26124.4   3424.8   7.4687 26348.0
 02 09 2016  02 24  -15.5376 26124.7   3425.0   7.4689 26348.2
 02 09 2016  02 25  -15.5373 26124.7   3423.7   7.4662 26348.0
 02 09 2016  02 26  -15.5370 26124.3   3423.4   7.4657 26347.7
 02 09 2016  02 27  -15.5359 26123.9   3424.1   7.4673 26347.4
 02 09 2016  02 28  -15.5347 26122.9   3424.7   7.4688 26346.4
 02 09 2016  02 29  -15.5338 26121.9   3423.1   7.4658 26345.2
 02 09 2016  02 30  -15.5341 26120.1   3422.8   7.4655 26343.4
 02 09 2016  02 31  -15.5346 26118.7   3421.9   7.4640 26341.9
 02 09 2016  02 32  -15.5343 26117.9   3421.8   7.4640 26341.1
 02 09 2016  02 33  -15.5336 26116.9   3422.9   7.4668 26340.2
 02 09 2016  02 34  -15.5329 26115.9   3421.0   7.4629 26339.0
 02 09 2016  02 35  -15.5306 26115.1   3422.7   7.4667 26338.4
 02 09 2016  02 36  -15.5296 26114.1   3422.5   7.4667 26337.4
 02 09 2016  02 37  -15.5290 26112.6   3422.2   7.4663 26335.9
 02 09 2016  02 38  -15.5288 26110.7   3420.8   7.4640 26333.8
 02 09 2016  02 39  -15.5284 26108.8   3420.0   7.4627 26331.8
 02 09 2016  02 40  -15.5276 26106.7   3420.1   7.4636 26329.8
 02 09 2016  02 41  -15.5273 26105.1   3419.0   7.4615 26328.0
 02 09 2016  02 42  -15.5279 26103.2   3419.8   7.4638 26326.2
 02 09 2016  02 43  -15.5283 26101.7   3419.2   7.4630 26324.7
 02 09 2016  02 44  -15.5284 26100.2   3419.1   7.4632 26323.2
 02 09 2016  02 45  -15.5281 26098.7   3419.3   7.4641 26321.8
 02 09 2016  02 46  -15.5283 26097.3   3418.9   7.4636 26320.3
 02 09 2016  02 47  -15.5279 26096.0   3419.3   7.4648 26319.1
 02 09 2016  02 48  -15.5282 26094.8   3419.2   7.4649 26317.9
 02 09 2016  02 49  -15.5282 26094.1   3419.5   7.4658 26317.2
 02 09 2016  02 50  -15.5282 26093.8   3420.0   7.4669 26317.0
 02 09 2016  02 51  -15.5286 26093.4   3420.3   7.4676 26316.6
 02 09 2016  02 52  -15.5281 26092.9   3420.6   7.4686 26316.1
 02 09 2016  02 53  -15.5278 26092.3   3420.6   7.4687 26315.5
 02 09 2016  02 54  -15.5277 26092.0   3420.9   7.4695 26315.3
 02 09 2016  02 55  -15.5279 26091.6   3421.0   7.4697 26314.9
 02 09 2016  02 56  -15.5283 26091.3   3421.1   7.4699 26314.7
 02 09 2016  02 57  -15.5283 26091.3   3421.4   7.4708 26314.7
 02 09 2016  02 58  -15.5287 26091.4   3421.5   7.4708 26314.8
 02 09 2016  02 59  -15.5293 26091.8   3422.3   7.4725 26315.3
 02 09 2016  03 00  -15.5302 26092.1   3422.2   7.4722 26315.5
 02 09 2016  03 01  -15.5304 26092.7   3422.2   7.4719 26316.2
 02 09 2016  03 02  -15.5314 26093.1   3422.6   7.4727 26316.6
 02 09 2016  03 03  -15.5316 26093.8   3423.4   7.4743 26317.4
 02 09 2016  03 04  -15.5324 26094.4   3423.0   7.4732 26318.0
 02 09 2016  03 05  -15.5328 26094.6   3424.2   7.4758 26318.3
 02 09 2016  03 06  -15.5341 26094.4   3424.0   7.4753 26318.0
 02 09 2016  03 07  -15.5345 26094.6   3423.0   7.4732 26318.2
 02 09 2016  03 08  -15.5342 26094.9   3422.9   7.4728 26318.5
 02 09 2016  03 09  -15.5351 26094.4   3422.4   7.4720 26317.8
 02 09 2016  03 10  -15.5351 26094.2   3421.8   7.4708 26317.6
 02 09 2016  03 11  -15.5352 26093.9   3422.6   7.4726 26317.4
 02 09 2016  03 12  -15.5360 26093.5   3422.2   7.4718 26316.9
 02 09 2016  03 13  -15.5361 26093.6   3422.1   7.4715 26317.1
 02 09 2016  03 14  -15.5364 26094.0   3422.5   7.4723 26317.5
 02 09 2016  03 15  -15.5372 26093.9   3422.6   7.4725 26317.4
 02 09 2016  03 16  -15.5372 26094.5   3422.6   7.4724 26318.0
 02 09 2016  03 17  -15.5375 26094.3   3423.1   7.4735 26317.9
 02 09 2016  03 18  -15.5381 26093.5   3422.8   7.4730 26317.1
 02 09 2016  03 19  -15.5387 26092.8   3423.2   7.4742 26316.4
 02 09 2016  03 20  -15.5385 26092.4   3422.7   7.4732 26316.0
 02 09 2016  03 21  -15.5384 26092.0   3422.4   7.4727 26315.5
 02 09 2016  03 22  -15.5391 26091.2   3422.7   7.4734 26314.7
 02 09 2016  03 23  -15.5398 26090.7   3421.6   7.4712 26314.1
 02 09 2016  03 24  -15.5385 26090.5   3421.2   7.4705 26313.8
 02 09 2016  03 25  -15.5389 26090.2   3421.7   7.4717 26313.6
 02 09 2016  03 26  -15.5376 26089.9   3423.1   7.4748 26313.5
 02 09 2016  03 27  -15.5376 26089.6   3421.8   7.4721 26313.1
 02 09 2016  03 28  -15.5373 26089.1   3422.1   7.4729 26312.6
 02 09 2016  03 29  -15.5368 26089.6   3421.9   7.4722 26313.1
 02 09 2016  03 30  -15.5363 26090.3   3423.0   7.4744 26313.8
 02 09 2016  03 31  -15.5362 26090.4   3422.4   7.4732 26313.9
 02 09 2016  03 32  -15.5358 26090.3   3423.6   7.4757 26314.0
 02 09 2016  03 33  -15.5353 26090.8   3423.3   7.4749 26314.4
 02 09 2016  03 34  -15.5351 26090.8   3423.5   7.4754 26314.5
 02 09 2016  03 35  -15.5348 26090.6   3423.4   7.4753 26314.2
 02 09 2016  03 36  -15.5348 26090.1   3423.0   7.4744 26313.7
 02 09 2016  03 37  -15.5348 26089.7   3422.0   7.4725 26313.2
 02 09 2016  03 38  -15.5345 26089.4   3422.7   7.4739 26312.9
 02 09 2016  03 39  -15.5340 26089.2   3423.3   7.4754 26312.8
 02 09 2016  03 40  -15.5345 26089.2   3422.2   7.4729 26312.7
 02 09 2016  03 41  -15.5343 26089.7   3422.5   7.4736 26313.3
 02 09 2016  03 42  -15.5337 26090.4   3423.5   7.4755 26314.0
 02 09 2016  03 43  -15.5331 26091.5   3424.0   7.4761 26315.2
 02 09 2016  03 44  -15.5326 26092.4   3424.2   7.4764 26316.1
 02 09 2016  03 45  -15.5331 26092.1   3424.4   7.4769 26315.8
 02 09 2016  03 46  -15.5334 26091.4   3423.3   7.4748 26315.0
 02 09 2016  03 47  -15.5330 26091.2   3423.1   7.4744 26314.8
 02 09 2016  03 48  -15.5321 26091.8   3423.8   7.4758 26315.5
 02 09 2016  03 49  -15.5323 26091.8   3423.3   7.4747 26315.4
 02 09 2016  03 50  -15.5322 26092.1   3423.7   7.4755 26315.8
 02 09 2016  03 51  -15.5321 26092.5   3424.1   7.4761 26316.2
 02 09 2016  03 52  -15.5328 26092.1   3423.2   7.4743 26315.7
 02 09 2016  03 53  -15.5326 26091.9   3423.5   7.4749 26315.6
 02 09 2016  03 54  -15.5322 26092.5   3423.6   7.4751 26316.2
 02 09 2016  03 55  -15.5321 26093.2   3424.3   7.4764 26316.9
 02 09 2016  03 56  -15.5327 26093.7   3424.6   7.4769 26317.5
 02 09 2016  03 57  -15.5333 26093.6   3424.5   7.4768 26317.3
 02 09 2016  03 58  -15.5338 26093.3   3423.9   7.4755 26317.0
 02 09 2016  03 59  -15.5342 26093.0   3423.6   7.4750 26316.6
 02 09 2016  04 00  -15.5344 26093.2   3424.0   7.4756 26316.9
 02 09 2016  04 01  -15.5355 26092.7   3423.8   7.4754 26316.4
 02 09 2016  04 02  -15.5358 26092.1   3423.2   7.4744 26315.7
 02 09 2016  04 03  -15.5362 26091.8   3423.6   7.4752 26315.5
 02 09 2016  04 04  -15.5366 26091.4   3423.1   7.4743 26315.0
 02 09 2016  04 05  -15.5364 26091.3   3423.4   7.4749 26315.0
 02 09 2016  04 06  -15.5364 26091.6   3424.0   7.4761 26315.3
 02 09 2016  04 07  -15.5370 26091.7   3423.8   7.4756 26315.4
 02 09 2016  04 08  -15.5373 26091.5   3424.0   7.4763 26315.2
 02 09 2016  04 09  -15.5378 26091.6   3422.9   7.4738 26315.1
 02 09 2016  04 10  -15.5384 26091.6   3424.5   7.4773 26315.4
 02 09 2016  04 11  -15.5390 26091.9   3424.6   7.4774 26315.7
 02 09 2016  04 12  -15.5387 26092.9   3424.9   7.4779 26316.8
 02 09 2016  04 13  -15.5377 26093.8   3425.6   7.4791 26317.7
 02 09 2016  04 14  -15.5366 26094.2   3425.5   7.4787 26318.1
 02 09 2016  04 15  -15.5365 26094.6   3425.5   7.4785 26318.5
 02 09 2016  04 16  -15.5365 26095.5   3425.3   7.4779 26319.3
 02 09 2016  04 17  -15.5365 26095.8   3425.4   7.4781 26319.7
 02 09 2016  04 18  -15.5360 26096.7   3425.5   7.4780 26320.6
 02 09 2016  04 19  -15.5357 26098.3   3426.6   7.4799 26322.3
 02 09 2016  04 20  -15.5354 26099.6   3427.2   7.4809 26323.7
 02 09 2016  04 21  -15.5352 26101.0   3426.9   7.4797 26325.0
 02 09 2016  04 22  -15.5348 26102.1   3426.9   7.4796 26326.1
 02 09 2016  04 23  -15.5346 26103.4   3426.9   7.4792 26327.4
 02 09 2016  04 24  -15.5346 26104.7   3427.3   7.4796 26328.7
 02 09 2016  04 25  -15.5347 26106.1   3427.3   7.4793 26330.1
 02 09 2016  04 26  -15.5351 26107.8   3428.0   7.4803 26331.9
 02 09 2016  04 27  -15.5351 26109.1   3427.7   7.4791 26333.1
 02 09 2016  04 28  -15.5345 26110.4   3428.6   7.4808 26334.5
 02 09 2016  04 29  -15.5354 26111.6   3427.3   7.4776 26335.6
 02 09 2016  04 30  -15.5345 26113.8   3428.8   7.4802 26337.9
 02 09 2016  04 31  -15.5364 26115.4   3428.8   7.4799 26339.5
 02 09 2016  04 32  -15.5367 26117.7   3429.0   7.4795 26341.9
 02 09 2016  04 33  -15.5364 26119.0   3429.1   7.4794 26343.1
 02 09 2016  04 34  -15.5366 26120.1   3428.6   7.4780 26344.2
 02 09 2016  04 35  -15.5366 26122.8   3428.8   7.4778 26346.8
 02 09 2016  04 36  -15.5357 26125.3   3429.5   7.4786 26349.4
 02 09 2016  04 37  -15.5364 26126.6   3430.7   7.4807 26350.8
 02 09 2016  04 38  -15.5370 26127.8   3429.9   7.4787 26351.9
 02 09 2016  04 39  -15.5368 26129.4   3429.6   7.4777 26353.5
 02 09 2016  04 40  -15.5375 26132.1   3430.5   7.4787 26356.3
 02 09 2016  04 41  -15.5371 26135.1   3430.9   7.4787 26359.3
 02 09 2016  04 42  -15.5373 26138.3   3431.9   7.4801 26362.6
 02 09 2016  04 43  -15.5368 26141.6   3432.3   7.4800 26365.9
 02 09 2016  04 44  -15.5361 26145.1   3432.9   7.4801 26369.5
 02 09 2016  04 45  -15.5365 26148.2   3432.7   7.4790 26372.5
 02 09 2016  04 46  -15.5348 26151.1   3433.3   7.4795 26375.5
 02 09 2016  04 47  -15.5358 26152.5   3431.8   7.4757 26376.7
 02 09 2016  04 48  -15.5351 26155.6   3432.1   7.4756 26379.8
 02 09 2016  04 49  -15.5338 26158.2   3432.7   7.4762 26382.5
 02 09 2016  04 50  -15.5342 26160.3   3433.4   7.4771 26384.7
 02 09 2016  04 51  -15.5343 26161.8   3432.9   7.4756 26386.1
 02 09 2016  04 52  -15.5353 26163.2   3430.8   7.4705 26387.2
 02 09 2016  04 53  -15.5354 26164.5   3430.5   7.4697 26388.5
 02 09 2016  04 54  -15.5355 26165.9   3430.7   7.4696 26389.8
 02 09 2016  04 55  -15.5361 26167.0   3431.2   7.4705 26391.0
 02 09 2016  04 56  -15.5363 26167.5   3431.0   7.4697 26391.4
 02 09 2016  04 57  -15.5373 26167.8   3429.0   7.4655 26391.5
 02 09 2016  04 58  -15.5374 26168.3   3428.0   7.4631 26391.9
 02 09 2016  04 59  -15.5382 26168.0   3428.0   7.4632 26391.6
 02 09 2016  05 00  -15.5388 26168.0   3427.3   7.4617 26391.4
 02 09 2016  05 01  -15.5399 26167.3   3426.0   7.4590 26390.6
 02 09 2016  05 02  -15.5411 26166.2   3425.6   7.4586 26389.5
 02 09 2016  05 03  -15.5427 26164.5   3424.4   7.4564 26387.6
 02 09 2016  05 04  -15.5432 26163.2   3423.5   7.4549 26386.3
 02 09 2016  05 05  -15.5438 26161.9   3423.4   7.4550 26384.9
 02 09 2016  05 06  -15.5437 26161.1   3424.0   7.4566 26384.2
 02 09 2016  05 07  -15.5442 26159.6   3423.7   7.4563 26382.7
 02 09 2016  05 08  -15.5446 26157.8   3422.2   7.4536 26380.8
 02 09 2016  05 09  -15.5448 26156.0   3421.7   7.4531 26378.8
