Manaus - AM                    UNIVAP-03  <275> 1 Min. Reported data

 DD MM YYYY  HH MM   D(Deg)  H(nT)   Z(nT)   I(Deg)   F(nT)

 01 10 2016  00 00  -15.5172 26082.1   3405.7   7.4394 26303.5
 01 10 2016  00 01  -15.5190 26082.3   3405.8   7.4395 26303.7
 01 10 2016  00 02  -15.5181 26083.2   3405.9   7.4394 26304.7
 01 10 2016  00 03  -15.5176 26084.1   3406.0   7.4395 26305.5
 01 10 2016  00 04  -15.5174 26084.1   3407.7   7.4432 26305.8
 01 10 2016  00 05  -15.5176 26084.8   3407.5   7.4425 26306.4
 01 10 2016  00 06  -15.5179 26085.6   3405.5   7.4380 26307.0
 01 10 2016  00 07  -15.5170 26086.3   3407.4   7.4420 26307.9
 01 10 2016  00 08  -15.5171 26086.6   3407.9   7.4428 26308.3
 01 10 2016  00 09  -15.5171 26087.1   3408.0   7.4430 26308.8
 01 10 2016  00 10  -15.5163 26087.5   3407.0   7.4406 26309.0
 01 10 2016  00 11  -15.5159 26087.7   3406.9   7.4404 26309.3
 01 10 2016  00 12  -15.5169 26088.0   3406.4   7.4393 26309.4
 01 10 2016  00 13  -15.5168 26088.2   3406.7   7.4399 26309.7
 01 10 2016  00 14  -15.5167 26088.6   3405.8   7.4377 26310.0
 01 10 2016  00 15  -15.5162 26088.9   3406.5   7.4392 26310.3
 01 10 2016  00 16  -15.5157 26089.1   3407.3   7.4409 26310.6
 01 10 2016  00 17  -15.5152 26089.4   3406.8   7.4397 26310.9
 01 10 2016  00 18  -15.5159 26089.4   3406.7   7.4395 26310.9
 01 10 2016  00 19  -15.5164 26089.5   3405.7   7.4373 26310.9
 01 10 2016  00 20  -15.5152 26090.0   3406.9   7.4398 26311.5
 01 10 2016  00 21  -15.5158 26090.1   3407.1   7.4402 26311.6
 01 10 2016  00 22  -15.5152 26090.3   3406.2   7.4381 26311.7
 01 10 2016  00 23  -15.5157 26090.3   3405.9   7.4375 26311.7
 01 10 2016  00 24  -15.5153 26090.6   3406.5   7.4386 26312.0
 01 10 2016  00 25  -15.5153 26090.8   3406.4   7.4384 26312.2
 01 10 2016  00 26  -15.5151 26091.0   3406.3   7.4381 26312.4
 01 10 2016  00 27  -15.5158 26091.1   3406.3   7.4382 26312.5
 01 10 2016  00 28  -15.5145 26091.5   3406.6   7.4387 26312.9
 01 10 2016  00 29  -15.5148 26091.6   3407.2   7.4400 26313.2
 01 10 2016  00 30  -15.5149 26092.3   3405.7   7.4364 26313.6
 01 10 2016  00 31  -15.5136 26093.0   3407.7   7.4406 26314.6
 01 10 2016  00 32  -15.5143 26093.6   3405.6   7.4359 26314.9
 01 10 2016  00 33  -15.5135 26094.0   3406.5   7.4378 26315.4
 01 10 2016  00 34  -15.5145 26094.2   3405.8   7.4362 26315.5
 01 10 2016  00 35  -15.5139 26094.2   3407.8   7.4404 26315.8
 01 10 2016  00 36  -15.5131 26094.5   3407.8   7.4403 26316.1
 01 10 2016  00 37  -15.5130 26095.0   3405.8   7.4360 26316.3
 01 10 2016  00 38  -15.5125 26095.0   3407.5   7.4395 26316.5
 01 10 2016  00 39  -15.5134 26095.6   3406.0   7.4363 26316.9
 01 10 2016  00 40  -15.5138 26095.8   3407.3   7.4389 26317.3
 01 10 2016  00 41  -15.5134 26096.4   3405.9   7.4359 26317.7
 01 10 2016  00 42  -15.5146 26095.9   3405.4   7.4348 26317.2
 01 10 2016  00 43  -15.5139 26095.8   3406.2   7.4365 26317.1
 01 10 2016  00 44  -15.5147 26095.6   3405.9   7.4361 26316.9
 01 10 2016  00 45  -15.5136 26096.1   3407.1   7.4384 26317.5
 01 10 2016  00 46  -15.5136 26097.3   3406.9   7.4377 26318.7
 01 10 2016  00 47  -15.5124 26098.2   3407.8   7.4393 26319.7
 01 10 2016  00 48  -15.5128 26099.4   3407.1   7.4375 26320.8
 01 10 2016  00 49  -15.5105 26101.4   3407.8   7.4385 26322.9
 01 10 2016  00 50  -15.5116 26101.8   3408.9   7.4407 26323.4
 01 10 2016  00 51  -15.5107 26103.0   3409.2   7.4410 26324.7
 01 10 2016  00 52  -15.5096 26103.9   3409.5   7.4415 26325.6
 01 10 2016  00 53  -15.5097 26104.9   3408.6   7.4392 26326.5
 01 10 2016  00 54  -15.5109 26105.2   3407.8   7.4373 26326.7
 01 10 2016  00 55  -15.5092 26106.0   3407.8   7.4372 26327.4
 01 10 2016  00 56  -15.5089 26106.4   3408.0   7.4374 26327.9
 01 10 2016  00 57  -15.5104 26106.8   3406.0   7.4331 26328.0
 01 10 2016  00 58  -15.5099 26107.4   3406.3   7.4336 26328.7
 01 10 2016  00 59  -15.5103 26107.5   3407.2   7.4355 26328.9
 01 10 2016  01 00  -15.5108 26108.1   3406.7   7.4342 26329.4
 01 10 2016  01 01  -15.5113 26108.5   3407.1   7.4351 26329.9
 01 10 2016  01 02  -15.5101 26109.6   3407.8   7.4362 26331.0
 01 10 2016  01 03  -15.5109 26110.5   3406.7   7.4335 26331.8
 01 10 2016  01 04  -15.5105 26110.9   3407.3   7.4348 26332.3
 01 10 2016  01 05  -15.5108 26110.5   3408.2   7.4367 26332.0
 01 10 2016  01 06  -15.5121 26110.5   3405.5   7.4309 26331.6
 01 10 2016  01 07  -15.5116 26110.2   3405.2   7.4305 26331.3
 01 10 2016  01 08  -15.5115 26110.4   3405.6   7.4312 26331.5
 01 10 2016  01 09  -15.5121 26110.4   3405.6   7.4312 26331.5
 01 10 2016  01 10  -15.5130 26110.3   3404.8   7.4295 26331.4
 01 10 2016  01 11  -15.5123 26110.3   3405.9   7.4318 26331.5
 01 10 2016  01 12  -15.5136 26109.8   3406.4   7.4332 26331.0
 01 10 2016  01 13  -15.5138 26109.7   3406.5   7.4333 26331.0
 01 10 2016  01 14  -15.5151 26109.0   3405.0   7.4303 26330.1
 01 10 2016  01 15  -15.5139 26108.9   3405.0   7.4304 26330.0
 01 10 2016  01 16  -15.5147 26108.6   3403.7   7.4276 26329.5
 01 10 2016  01 17  -15.5149 26108.0   3404.6   7.4297 26329.1
 01 10 2016  01 18  -15.5149 26107.9   3404.9   7.4304 26329.0
 01 10 2016  01 19  -15.5153 26107.5   3404.5   7.4297 26328.6
 01 10 2016  01 20  -15.5159 26106.9   3404.2   7.4291 26327.9
 01 10 2016  01 21  -15.5163 26106.2   3404.3   7.4295 26327.3
 01 10 2016  01 22  -15.5150 26106.4   3404.0   7.4288 26327.4
 01 10 2016  01 23  -15.5160 26105.9   3404.6   7.4302 26326.9
 01 10 2016  01 24  -15.5156 26106.0   3404.6   7.4304 26327.0
 01 10 2016  01 25  -15.5170 26105.8   3404.8   7.4307 26326.9
 01 10 2016  01 26  -15.5158 26106.5   3403.8   7.4284 26327.4
 01 10 2016  01 27  -15.5155 26106.5   3405.3   7.4315 26327.7
 01 10 2016  01 28  -15.5162 26106.3   3405.0   7.4311 26327.4
 01 10 2016  01 29  -15.5167 26106.0   3405.6   7.4323 26327.2
 01 10 2016  01 30  -15.5157 26106.1   3405.4   7.4319 26327.2
 01 10 2016  01 31  -15.5167 26105.6   3405.4   7.4322 26326.8
 01 10 2016  01 32  -15.5158 26105.8   3404.5   7.4301 26326.9
 01 10 2016  01 33  -15.5161 26105.5   3404.5   7.4302 26326.6
 01 10 2016  01 34  -15.5165 26105.6   3403.3   7.4275 26326.5
 01 10 2016  01 35  -15.5166 26105.4   3404.6   7.4304 26326.5
 01 10 2016  01 36  -15.5175 26105.3   3403.6   7.4284 26326.2
 01 10 2016  01 37  -15.5169 26105.1   3405.4   7.4323 26326.2
 01 10 2016  01 38  -15.5171 26105.1   3404.4   7.4302 26326.2
 01 10 2016  01 39  -15.5175 26104.8   3403.5   7.4283 26325.8
 01 10 2016  01 40  -15.5166 26104.7   3404.4   7.4302 26325.8
 01 10 2016  01 41  -15.5176 26104.4   3404.0   7.4295 26325.5
 01 10 2016  01 42  -15.5174 26104.4   3405.1   7.4319 26325.5
 01 10 2016  01 43  -15.5183 26104.0   3404.7   7.4311 26325.1
 01 10 2016  01 44  -15.5175 26104.4   3404.9   7.4313 26325.5
 01 10 2016  01 45  -15.5184 26104.3   3406.0   7.4338 26325.6
 01 10 2016  01 46  -15.5183 26104.7   3405.1   7.4316 26325.8
 01 10 2016  01 47  -15.5175 26104.8   3405.5   7.4325 26326.0
 01 10 2016  01 48  -15.5189 26104.6   3405.0   7.4315 26325.7
 01 10 2016  01 49  -15.5185 26104.7   3403.9   7.4291 26325.7
 01 10 2016  01 50  -15.5186 26104.5   3404.2   7.4298 26325.5
 01 10 2016  01 51  -15.5179 26104.6   3404.5   7.4305 26325.6
 01 10 2016  01 52  -15.5184 26104.6   3404.3   7.4301 26325.6
 01 10 2016  01 53  -15.5174 26104.7   3405.7   7.4329 26325.9
 01 10 2016  01 54  -15.5172 26105.0   3404.6   7.4305 26326.1
 01 10 2016  01 55  -15.5177 26104.8   3405.3   7.4321 26326.0
 01 10 2016  01 56  -15.5180 26105.3   3405.6   7.4326 26326.5
 01 10 2016  01 57  -15.5170 26105.4   3405.8   7.4331 26326.6
 01 10 2016  01 58  -15.5175 26104.7   3404.9   7.4313 26325.9
 01 10 2016  01 59  -15.5178 26104.6   3404.7   7.4308 26325.6
 01 10 2016  02 00  -15.5175 26104.7   3405.1   7.4316 26325.9
 01 10 2016  02 01  -15.5177 26104.9   3405.3   7.4321 26326.0
 01 10 2016  02 02  -15.5185 26104.7   3404.8   7.4310 26325.8
 01 10 2016  02 03  -15.5185 26104.6   3404.9   7.4313 26325.7
 01 10 2016  02 04  -15.5175 26104.6   3405.4   7.4324 26325.8
 01 10 2016  02 05  -15.5181 26104.4   3404.9   7.4313 26325.5
 01 10 2016  02 06  -15.5183 26104.4   3405.0   7.4316 26325.5
 01 10 2016  02 07  -15.5182 26104.4   3405.1   7.4317 26325.5
 01 10 2016  02 08  -15.5184 26104.3   3405.0   7.4316 26325.4
 01 10 2016  02 09  -15.5182 26104.2   3405.0   7.4317 26325.4
 01 10 2016  02 10  -15.5183 26104.3   3405.1   7.4319 26325.4
 01 10 2016  02 11  -15.5185 26104.2   3405.4   7.4325 26325.4
 01 10 2016  02 12  -15.5182 26104.5   3405.1   7.4317 26325.6
 01 10 2016  02 13  -15.5183 26104.6   3405.4   7.4323 26325.7
 01 10 2016  02 14  -15.5187 26104.5   3405.4   7.4324 26325.7
 01 10 2016  02 15  -15.5185 26104.6   3405.4   7.4323 26325.8
 01 10 2016  02 16  -15.5184 26104.7   3405.3   7.4322 26325.8
 01 10 2016  02 17  -15.5182 26104.7   3405.4   7.4324 26325.9
 01 10 2016  02 18  -15.5184 26104.7   3405.3   7.4321 26325.9
 01 10 2016  02 19  -15.5188 26104.9   3404.9   7.4312 26326.0
 01 10 2016  02 20  -15.5176 26105.1   3406.2   7.4339 26326.4
 01 10 2016  02 21  -15.5183 26104.9   3406.9   7.4355 26326.2
 01 10 2016  02 22  -15.5174 26105.4   3405.4   7.4323 26326.6
 01 10 2016  02 23  -15.5179 26105.2   3405.0   7.4314 26326.3
 01 10 2016  02 24  -15.5184 26105.1   3404.9   7.4311 26326.2
 01 10 2016  02 25  -15.5174 26105.3   3405.3   7.4319 26326.4
 01 10 2016  02 26  -15.5176 26105.2   3405.1   7.4317 26326.4
 01 10 2016  02 27  -15.5183 26104.8   3405.8   7.4332 26326.1
 01 10 2016  02 28  -15.5181 26105.2   3404.1   7.4293 26326.2
 01 10 2016  02 29  -15.5176 26104.9   3406.4   7.4345 26326.2
 01 10 2016  02 30  -15.5171 26105.1   3405.3   7.4319 26326.3
 01 10 2016  02 31  -15.5172 26105.2   3403.8   7.4287 26326.2
 01 10 2016  02 32  -15.5173 26105.1   3404.5   7.4303 26326.2
 01 10 2016  02 33  -15.5164 26104.9   3406.6   7.4348 26326.3
 01 10 2016  02 34  -15.5165 26105.1   3405.2   7.4319 26326.3
 01 10 2016  02 35  -15.5165 26105.1   3405.3   7.4321 26326.3
 01 10 2016  02 36  -15.5180 26104.6   3405.5   7.4325 26325.8
 01 10 2016  02 37  -15.5165 26104.8   3406.4   7.4344 26326.1
 01 10 2016  02 38  -15.5164 26104.9   3406.0   7.4336 26326.2
 01 10 2016  02 39  -15.5168 26104.8   3405.4   7.4324 26326.0
 01 10 2016  02 40  -15.5164 26104.9   3405.3   7.4320 26326.1
 01 10 2016  02 41  -15.5166 26104.8   3405.3   7.4321 26325.9
 01 10 2016  02 42  -15.5162 26104.7   3405.7   7.4329 26326.0
 01 10 2016  02 43  -15.5162 26104.8   3404.6   7.4305 26325.9
 01 10 2016  02 44  -15.5158 26104.6   3405.5   7.4326 26325.8
 01 10 2016  02 45  -15.5164 26104.6   3405.1   7.4316 26325.7
 01 10 2016  02 46  -15.5158 26104.4   3406.6   7.4350 26325.8
 01 10 2016  02 47  -15.5154 26104.8   3405.7   7.4330 26326.0
 01 10 2016  02 48  -15.5153 26104.8   3405.6   7.4327 26326.0
 01 10 2016  02 49  -15.5153 26104.7   3405.4   7.4323 26325.9
 01 10 2016  02 50  -15.5151 26104.5   3405.3   7.4321 26325.7
 01 10 2016  02 51  -15.5151 26104.5   3405.4   7.4324 26325.6
 01 10 2016  02 52  -15.5151 26104.4   3405.1   7.4318 26325.5
 01 10 2016  02 53  -15.5148 26104.5   3405.2   7.4320 26325.6
 01 10 2016  02 54  -15.5146 26104.5   3405.4   7.4323 26325.7
 01 10 2016  02 55  -15.5146 26104.6   3405.4   7.4323 26325.8
 01 10 2016  02 56  -15.5140 26104.9   3405.4   7.4324 26326.1
 01 10 2016  02 57  -15.5139 26104.8   3405.3   7.4322 26326.0
 01 10 2016  02 58  -15.5150 26104.9   3404.2   7.4297 26325.9
 01 10 2016  02 59  -15.5134 26105.4   3404.5   7.4302 26326.5
 01 10 2016  03 00  -15.5140 26105.2   3404.8   7.4309 26326.3
 01 10 2016  03 01  -15.5141 26105.3   3404.5   7.4302 26326.3
 01 10 2016  03 02  -15.5134 26105.2   3405.4   7.4322 26326.4
 01 10 2016  03 03  -15.5132 26105.1   3406.1   7.4338 26326.4
 01 10 2016  03 04  -15.5139 26104.7   3405.8   7.4333 26325.9
 01 10 2016  03 05  -15.5133 26104.7   3403.5   7.4283 26325.7
 01 10 2016  03 06  -15.5136 26104.1   3403.7   7.4289 26325.0
 01 10 2016  03 07  -15.5133 26103.5   3403.9   7.4294 26324.5
 01 10 2016  03 08  -15.5129 26103.4   3403.3   7.4283 26324.3
 01 10 2016  03 09  -15.5123 26103.2   3404.8   7.4315 26324.3
 01 10 2016  03 10  -15.5123 26102.9   3405.9   7.4340 26324.1
 01 10 2016  03 11  -15.5136 26102.4   3405.0   7.4321 26323.5
 01 10 2016  03 12  -15.5140 26102.3   3404.2   7.4305 26323.4
 01 10 2016  03 13  -15.5135 26102.7   3404.0   7.4300 26323.7
 01 10 2016  03 14  -15.5140 26102.8   3404.0   7.4298 26323.8
 01 10 2016  03 15  -15.5123 26103.2   3405.1   7.4321 26324.4
 01 10 2016  03 16  -15.5131 26102.9   3405.6   7.4333 26324.1
 01 10 2016  03 17  -15.5131 26102.9   3404.3   7.4306 26324.0
 01 10 2016  03 18  -15.5135 26102.5   3404.2   7.4304 26323.5
 01 10 2016  03 19  -15.5135 26102.1   3404.6   7.4314 26323.2
 01 10 2016  03 20  -15.5141 26101.6   3404.8   7.4319 26322.8
 01 10 2016  03 21  -15.5141 26101.4   3403.6   7.4293 26322.3
 01 10 2016  03 22  -15.5148 26100.6   3404.2   7.4309 26321.7
 01 10 2016  03 23  -15.5145 26100.6   3403.3   7.4291 26321.5
 01 10 2016  03 24  -15.5148 26100.5   3404.4   7.4314 26321.6
 01 10 2016  03 25  -15.5165 26100.0   3404.8   7.4325 26321.2
 01 10 2016  03 26  -15.5161 26100.1   3404.2   7.4310 26321.2
 01 10 2016  03 27  -15.5168 26099.9   3403.6   7.4298 26320.8
 01 10 2016  03 28  -15.5166 26099.5   3404.5   7.4318 26320.7
 01 10 2016  03 29  -15.5171 26099.3   3404.6   7.4322 26320.4
 01 10 2016  03 30  -15.5171 26099.5   3403.3   7.4294 26320.5
 01 10 2016  03 31  -15.5169 26099.7   3403.8   7.4304 26320.7
 01 10 2016  03 32  -15.5176 26099.5   3403.9   7.4306 26320.6
 01 10 2016  03 33  -15.5183 26099.1   3404.9   7.4328 26320.2
 01 10 2016  03 34  -15.5182 26098.6   3405.3   7.4338 26319.9
 01 10 2016  03 35  -15.5185 26098.1   3405.3   7.4339 26319.3
 01 10 2016  03 36  -15.5200 26098.2   3403.6   7.4304 26319.2
 01 10 2016  03 37  -15.5201 26098.6   3403.9   7.4307 26319.6
 01 10 2016  03 38  -15.5192 26099.1   3403.7   7.4302 26320.1
 01 10 2016  03 39  -15.5201 26099.1   3404.3   7.4315 26320.1
 01 10 2016  03 40  -15.5203 26098.9   3405.7   7.4345 26320.2
 01 10 2016  03 41  -15.5199 26099.0   3405.6   7.4344 26320.2
 01 10 2016  03 42  -15.5199 26099.1   3405.1   7.4333 26320.3
 01 10 2016  03 43  -15.5205 26099.2   3406.2   7.4357 26320.5
 01 10 2016  03 44  -15.5205 26099.8   3404.4   7.4317 26320.9
 01 10 2016  03 45  -15.5205 26099.4   3406.5   7.4361 26320.8
 01 10 2016  03 46  -15.5214 26099.3   3404.8   7.4325 26320.4
 01 10 2016  03 47  -15.5205 26099.3   3405.4   7.4339 26320.6
 01 10 2016  03 48  -15.5210 26099.4   3404.1   7.4311 26320.4
 01 10 2016  03 49  -15.5196 26099.6   3406.5   7.4360 26321.0
 01 10 2016  03 50  -15.5204 26099.7   3405.4   7.4338 26320.9
 01 10 2016  03 51  -15.5188 26100.4   3405.7   7.4342 26321.6
 01 10 2016  03 52  -15.5193 26100.2   3406.4   7.4358 26321.6
 01 10 2016  03 53  -15.5191 26100.5   3405.0   7.4327 26321.6
 01 10 2016  03 54  -15.5190 26100.5   3404.9   7.4325 26321.7
 01 10 2016  03 55  -15.5191 26100.4   3404.7   7.4321 26321.6
 01 10 2016  03 56  -15.5188 26100.6   3405.1   7.4330 26321.7
 01 10 2016  03 57  -15.5193 26100.2   3405.7   7.4342 26321.5
 01 10 2016  03 58  -15.5197 26100.4   3403.9   7.4304 26321.4
 01 10 2016  03 59  -15.5208 26100.2   3403.9   7.4304 26321.2
 01 10 2016  04 00  -15.5204 26100.2   3403.2   7.4289 26321.1
 01 10 2016  04 01  -15.5220 26099.4   3404.2   7.4313 26320.5
 01 10 2016  04 02  -15.5229 26099.7   3403.7   7.4302 26320.7
 01 10 2016  04 03  -15.5223 26100.2   3404.3   7.4312 26321.3
 01 10 2016  04 04  -15.5229 26101.3   3404.9   7.4322 26322.5
 01 10 2016  04 05  -15.5234 26101.5   3405.8   7.4342 26322.7
 01 10 2016  04 06  -15.5229 26104.0   3405.8   7.4333 26325.2
 01 10 2016  04 07  -15.5209 26105.5   3406.9   7.4353 26326.9
 01 10 2016  04 08  -15.5207 26107.2   3407.4   7.4359 26328.7
 01 10 2016  04 09  -15.5213 26109.3   3406.1   7.4325 26330.5
 01 10 2016  04 10  -15.5212 26111.1   3406.6   7.4331 26332.4
 01 10 2016  04 11  -15.5211 26113.0   3406.9   7.4332 26334.3
 01 10 2016  04 12  -15.5209 26114.7   3409.3   7.4380 26336.3
 01 10 2016  04 13  -15.5201 26117.2   3409.0   7.4365 26338.7
 01 10 2016  04 14  -15.5190 26119.3   3409.4   7.4369 26340.8
 01 10 2016  04 15  -15.5180 26121.9   3408.7   7.4346 26343.4
 01 10 2016  04 16  -15.5180 26122.9   3410.0   7.4372 26344.6
 01 10 2016  04 17  -15.5182 26124.5   3408.3   7.4330 26345.9
 01 10 2016  04 18  -15.5174 26125.7   3409.1   7.4344 26347.2
 01 10 2016  04 19  -15.5179 26125.9   3409.4   7.4351 26347.4
 01 10 2016  04 20  -15.5189 26126.8   3406.9   7.4294 26347.9
 01 10 2016  04 21  -15.5187 26127.7   3406.2   7.4276 26348.8
 01 10 2016  04 22  -15.5175 26128.0   3407.7   7.4308 26349.3
 01 10 2016  04 23  -15.5194 26128.0   3405.8   7.4265 26349.1
 01 10 2016  04 24  -15.5200 26128.5   3405.2   7.4253 26349.5
 01 10 2016  04 25  -15.5196 26128.6   3407.1   7.4292 26349.8
 01 10 2016  04 26  -15.5203 26129.2   3405.7   7.4261 26350.2
 01 10 2016  04 27  -15.5200 26129.3   3405.9   7.4265 26350.3
 01 10 2016  04 28  -15.5213 26129.1   3406.0   7.4268 26350.2
 01 10 2016  04 29  -15.5214 26129.2   3404.8   7.4241 26350.1
 01 10 2016  04 30  -15.5216 26128.9   3404.5   7.4235 26349.8
 01 10 2016  04 31  -15.5216 26128.6   3405.0   7.4248 26349.6
 01 10 2016  04 32  -15.5219 26128.6   3405.2   7.4252 26349.5
 01 10 2016  04 33  -15.5221 26128.7   3404.5   7.4236 26349.6
 01 10 2016  04 34  -15.5221 26128.6   3403.7   7.4220 26349.4
 01 10 2016  04 35  -15.5228 26127.7   3404.0   7.4229 26348.5
 01 10 2016  04 36  -15.5233 26127.0   3403.8   7.4225 26347.8
 01 10 2016  04 37  -15.5236 26126.5   3403.4   7.4219 26347.2
 01 10 2016  04 38  -15.5240 26126.0   3403.0   7.4211 26346.7
 01 10 2016  04 39  -15.5233 26125.8   3402.5   7.4202 26346.5
 01 10 2016  04 40  -15.5241 26125.1   3404.0   7.4235 26345.9
 01 10 2016  04 41  -15.5241 26125.0   3403.6   7.4227 26345.8
 01 10 2016  04 42  -15.5249 26124.3   3404.8   7.4255 26345.2
 01 10 2016  04 43  -15.5247 26124.2   3402.3   7.4203 26344.9
 01 10 2016  04 44  -15.5257 26123.2   3404.0   7.4242 26344.0
 01 10 2016  04 45  -15.5256 26122.8   3403.1   7.4222 26343.6
 01 10 2016  04 46  -15.5258 26122.0   3402.6   7.4215 26342.7
 01 10 2016  04 47  -15.5247 26121.1   3402.8   7.4222 26341.8
 01 10 2016  04 48  -15.5252 26119.9   3402.0   7.4207 26340.5
 01 10 2016  04 49  -15.5253 26119.2   3401.7   7.4204 26339.8
 01 10 2016  04 50  -15.5247 26118.6   3402.1   7.4214 26339.3
 01 10 2016  04 51  -15.5251 26118.4   3401.9   7.4209 26339.0
 01 10 2016  04 52  -15.5246 26118.4   3402.7   7.4227 26339.1
 01 10 2016  04 53  -15.5248 26118.1   3402.5   7.4223 26338.8
 01 10 2016  04 54  -15.5242 26118.0   3403.2   7.4240 26338.8
 01 10 2016  04 55  -15.5244 26117.3   3402.6   7.4228 26338.0
 01 10 2016  04 56  -15.5252 26116.1   3402.3   7.4224 26336.8
 01 10 2016  04 57  -15.5259 26115.3   3401.8   7.4217 26335.9
 01 10 2016  04 58  -15.5265 26114.9   3402.0   7.4221 26335.5
 01 10 2016  04 59  -15.5267 26115.1   3401.9   7.4220 26335.8
 01 10 2016  05 00  -15.5267 26115.0   3402.7   7.4237 26335.7
 01 10 2016  05 01  -15.5262 26114.8   3402.7   7.4238 26335.6
 01 10 2016  05 02  -15.5256 26115.0   3402.8   7.4238 26335.8
 01 10 2016  05 03  -15.5254 26115.1   3403.5   7.4253 26335.9
 01 10 2016  05 04  -15.5254 26115.1   3401.9   7.4219 26335.7
 01 10 2016  05 05  -15.5254 26114.5   3401.8   7.4218 26335.1
 01 10 2016  05 06  -15.5264 26113.1   3403.8   7.4265 26334.0
 01 10 2016  05 07  -15.5272 26112.5   3402.5   7.4240 26333.2
 01 10 2016  05 08  -15.5264 26112.1   3401.9   7.4227 26332.7
 01 10 2016  05 09  -15.5272 26111.0   3403.4   7.4264 26331.8
