Manaus - AM                    UNIVAP-03  <215> 1 Min. Reported data

 DD MM YYYY  HH MM   D(Deg)  H(nT)   Z(nT)   I(Deg)   F(nT)

 02 08 2016  00 00  -15.5129 26153.5   3439.4   7.4918 26378.6
 02 08 2016  00 01  -15.5132 26153.3   3439.6   7.4923 26378.5
 02 08 2016  00 02  -15.5131 26153.6   3439.8   7.4927 26378.8
 02 08 2016  00 03  -15.5128 26153.8   3439.9   7.4929 26379.1
 02 08 2016  00 04  -15.5127 26153.9   3440.1   7.4934 26379.1
 02 08 2016  00 05  -15.5121 26154.0   3440.1   7.4932 26379.3
 02 08 2016  00 06  -15.5120 26154.1   3440.0   7.4929 26379.4
 02 08 2016  00 07  -15.5121 26154.1   3440.0   7.4931 26379.3
 02 08 2016  00 08  -15.5118 26154.1   3440.0   7.4930 26379.4
 02 08 2016  00 09  -15.5120 26154.1   3439.7   7.4923 26379.3
 02 08 2016  00 10  -15.5116 26154.1   3439.8   7.4925 26379.4
 02 08 2016  00 11  -15.5121 26154.0   3439.9   7.4929 26379.2
 02 08 2016  00 12  -15.5121 26154.1   3439.6   7.4921 26379.3
 02 08 2016  00 13  -15.5120 26154.1   3439.7   7.4925 26379.3
 02 08 2016  00 14  -15.5115 26154.1   3439.9   7.4927 26379.3
 02 08 2016  00 15  -15.5114 26154.0   3440.0   7.4931 26379.3
 02 08 2016  00 16  -15.5117 26153.9   3439.3   7.4917 26379.0
 02 08 2016  00 17  -15.5116 26153.8   3439.8   7.4926 26379.1
 02 08 2016  00 18  -15.5115 26153.7   3439.5   7.4920 26378.9
 02 08 2016  00 19  -15.5116 26153.6   3439.7   7.4926 26378.8
 02 08 2016  00 20  -15.5111 26153.7   3439.4   7.4919 26378.8
 02 08 2016  00 21  -15.5111 26153.5   3439.9   7.4928 26378.8
 02 08 2016  00 22  -15.5113 26153.5   3439.3   7.4916 26378.6
 02 08 2016  00 23  -15.5115 26153.3   3439.5   7.4921 26378.5
 02 08 2016  00 24  -15.5112 26153.3   3439.8   7.4927 26378.5
 02 08 2016  00 25  -15.5109 26153.2   3439.5   7.4922 26378.4
 02 08 2016  00 26  -15.5110 26153.0   3439.8   7.4929 26378.2
 02 08 2016  00 27  -15.5111 26152.8   3439.0   7.4913 26377.9
 02 08 2016  00 28  -15.5110 26152.5   3439.0   7.4914 26377.6
 02 08 2016  00 29  -15.5109 26152.0   3438.9   7.4913 26377.2
 02 08 2016  00 30  -15.5108 26151.6   3439.0   7.4916 26376.8
 02 08 2016  00 31  -15.5108 26151.5   3439.2   7.4920 26376.7
 02 08 2016  00 32  -15.5105 26151.6   3439.4   7.4925 26376.8
 02 08 2016  00 33  -15.5105 26151.8   3439.5   7.4927 26377.0
 02 08 2016  00 34  -15.5101 26152.2   3439.7   7.4928 26377.4
 02 08 2016  00 35  -15.5098 26152.3   3440.0   7.4935 26377.6
 02 08 2016  00 36  -15.5097 26152.3   3439.9   7.4933 26377.5
 02 08 2016  00 37  -15.5098 26152.2   3439.6   7.4928 26377.4
 02 08 2016  00 38  -15.5098 26152.1   3439.5   7.4925 26377.3
 02 08 2016  00 39  -15.5098 26151.9   3439.9   7.4934 26377.2
 02 08 2016  00 40  -15.5091 26152.0   3439.3   7.4921 26377.2
 02 08 2016  00 41  -15.5094 26151.6   3439.2   7.4919 26376.8
 02 08 2016  00 42  -15.5100 26151.3   3438.7   7.4910 26376.4
 02 08 2016  00 43  -15.5103 26151.1   3438.5   7.4906 26376.1
 02 08 2016  00 44  -15.5097 26150.8   3439.0   7.4918 26376.0
 02 08 2016  00 45  -15.5092 26151.0   3438.9   7.4915 26376.1
 02 08 2016  00 46  -15.5098 26151.0   3439.3   7.4924 26376.2
 02 08 2016  00 47  -15.5099 26151.2   3439.7   7.4931 26376.4
 02 08 2016  00 48  -15.5099 26151.4   3439.2   7.4921 26376.6
 02 08 2016  00 49  -15.5101 26151.6   3440.0   7.4936 26376.8
 02 08 2016  00 50  -15.5095 26151.8   3439.6   7.4927 26377.1
 02 08 2016  00 51  -15.5100 26151.8   3440.0   7.4936 26377.0
 02 08 2016  00 52  -15.5101 26151.8   3439.6   7.4927 26377.0
 02 08 2016  00 53  -15.5104 26151.6   3440.1   7.4940 26376.9
 02 08 2016  00 54  -15.5103 26151.6   3439.8   7.4933 26376.8
 02 08 2016  00 55  -15.5103 26151.7   3439.7   7.4930 26377.0
 02 08 2016  00 56  -15.5100 26151.9   3439.9   7.4935 26377.2
 02 08 2016  00 57  -15.5104 26151.8   3439.5   7.4926 26377.0
 02 08 2016  00 58  -15.5097 26152.0   3439.2   7.4919 26377.1
 02 08 2016  00 59  -15.5096 26152.0   3439.5   7.4926 26377.2
 02 08 2016  01 00  -15.5097 26152.0   3439.5   7.4926 26377.2
 02 08 2016  01 01  -15.5096 26152.0   3439.9   7.4934 26377.3
 02 08 2016  01 02  -15.5101 26152.0   3439.9   7.4934 26377.3
 02 08 2016  01 03  -15.5095 26152.4   3440.9   7.4955 26377.8
 02 08 2016  01 04  -15.5093 26152.8   3440.3   7.4940 26378.1
 02 08 2016  01 05  -15.5091 26152.9   3440.4   7.4943 26378.2
 02 08 2016  01 06  -15.5093 26152.7   3440.1   7.4937 26378.0
 02 08 2016  01 07  -15.5096 26152.6   3439.5   7.4923 26377.8
 02 08 2016  01 08  -15.5092 26152.4   3439.5   7.4923 26377.6
 02 08 2016  01 09  -15.5094 26152.0   3439.7   7.4929 26377.3
 02 08 2016  01 10  -15.5092 26151.6   3439.0   7.4915 26376.8
 02 08 2016  01 11  -15.5094 26151.3   3438.8   7.4912 26376.5
 02 08 2016  01 12  -15.5091 26151.1   3439.5   7.4928 26376.3
 02 08 2016  01 13  -15.5091 26151.0   3439.6   7.4931 26376.3
 02 08 2016  01 14  -15.5085 26151.1   3439.2   7.4921 26376.3
 02 08 2016  01 15  -15.5083 26151.1   3440.0   7.4938 26376.4
 02 08 2016  01 16  -15.5081 26151.2   3439.4   7.4926 26376.4
 02 08 2016  01 17  -15.5087 26150.9   3439.6   7.4930 26376.2
 02 08 2016  01 18  -15.5091 26150.8   3439.2   7.4922 26375.9
 02 08 2016  01 19  -15.5091 26150.6   3439.8   7.4936 26375.8
 02 08 2016  01 20  -15.5092 26150.4   3439.4   7.4928 26375.7
 02 08 2016  01 21  -15.5087 26150.4   3439.9   7.4939 26375.7
 02 08 2016  01 22  -15.5088 26150.5   3439.1   7.4921 26375.7
 02 08 2016  01 23  -15.5088 26150.5   3439.0   7.4919 26375.7
 02 08 2016  01 24  -15.5089 26150.6   3439.4   7.4928 26375.8
 02 08 2016  01 25  -15.5086 26150.7   3439.7   7.4934 26376.0
 02 08 2016  01 26  -15.5085 26150.9   3439.3   7.4923 26376.1
 02 08 2016  01 27  -15.5086 26150.9   3439.3   7.4923 26376.1
 02 08 2016  01 28  -15.5081 26151.0   3440.2   7.4943 26376.4
 02 08 2016  01 29  -15.5079 26151.1   3439.9   7.4936 26376.4
 02 08 2016  01 30  -15.5080 26151.2   3439.9   7.4936 26376.4
 02 08 2016  01 31  -15.5085 26151.1   3439.7   7.4931 26376.3
 02 08 2016  01 32  -15.5083 26151.2   3439.5   7.4927 26376.4
 02 08 2016  01 33  -15.5082 26151.2   3439.5   7.4927 26376.4
 02 08 2016  01 34  -15.5084 26151.1   3440.0   7.4939 26376.4
 02 08 2016  01 35  -15.5081 26151.1   3439.6   7.4930 26376.4
 02 08 2016  01 36  -15.5081 26151.2   3439.4   7.4925 26376.4
 02 08 2016  01 37  -15.5081 26151.3   3439.5   7.4927 26376.5
 02 08 2016  01 38  -15.5080 26151.4   3439.0   7.4917 26376.5
 02 08 2016  01 39  -15.5082 26151.3   3439.0   7.4917 26376.5
 02 08 2016  01 40  -15.5081 26151.3   3439.7   7.4930 26376.5
 02 08 2016  01 41  -15.5079 26151.3   3439.6   7.4928 26376.5
 02 08 2016  01 42  -15.5083 26151.3   3439.1   7.4918 26376.4
 02 08 2016  01 43  -15.5083 26151.3   3439.7   7.4931 26376.5
 02 08 2016  01 44  -15.5079 26151.4   3438.8   7.4913 26376.5
 02 08 2016  01 45  -15.5084 26151.2   3439.4   7.4925 26376.4
 02 08 2016  01 46  -15.5083 26151.2   3439.5   7.4927 26376.4
 02 08 2016  01 47  -15.5082 26151.2   3439.3   7.4924 26376.4
 02 08 2016  01 48  -15.5084 26151.2   3439.1   7.4920 26376.3
 02 08 2016  01 49  -15.5084 26151.1   3439.4   7.4924 26376.3
 02 08 2016  01 50  -15.5083 26151.2   3439.3   7.4924 26376.4
 02 08 2016  01 51  -15.5084 26151.1   3439.3   7.4922 26376.3
 02 08 2016  01 52  -15.5083 26151.2   3439.3   7.4923 26376.4
 02 08 2016  01 53  -15.5084 26151.1   3439.6   7.4931 26376.3
 02 08 2016  01 54  -15.5082 26151.1   3439.5   7.4927 26376.3
 02 08 2016  01 55  -15.5086 26151.1   3439.3   7.4924 26376.3
 02 08 2016  01 56  -15.5085 26151.0   3439.4   7.4925 26376.2
 02 08 2016  01 57  -15.5087 26150.9   3439.2   7.4922 26376.1
 02 08 2016  01 58  -15.5086 26150.9   3439.2   7.4923 26376.1
 02 08 2016  01 59  -15.5084 26150.9   3439.3   7.4923 26376.1
 02 08 2016  02 00  -15.5086 26150.9   3439.5   7.4927 26376.1
 02 08 2016  02 01  -15.5086 26150.9   3439.3   7.4924 26376.1
 02 08 2016  02 02  -15.5083 26151.0   3439.4   7.4926 26376.2
 02 08 2016  02 03  -15.5089 26150.9   3439.6   7.4931 26376.2
 02 08 2016  02 04  -15.5089 26151.0   3438.9   7.4914 26376.2
 02 08 2016  02 05  -15.5090 26151.0   3439.3   7.4923 26376.2
 02 08 2016  02 06  -15.5082 26151.2   3439.2   7.4921 26376.4
 02 08 2016  02 07  -15.5086 26151.1   3439.2   7.4922 26376.3
 02 08 2016  02 08  -15.5086 26151.1   3439.2   7.4921 26376.2
 02 08 2016  02 09  -15.5088 26150.9   3438.9   7.4915 26376.1
 02 08 2016  02 10  -15.5089 26150.9   3439.0   7.4918 26376.1
 02 08 2016  02 11  -15.5084 26151.1   3439.5   7.4927 26376.3
 02 08 2016  02 12  -15.5084 26151.1   3439.3   7.4923 26376.3
 02 08 2016  02 13  -15.5086 26151.2   3439.2   7.4920 26376.3
 02 08 2016  02 14  -15.5086 26151.3   3438.7   7.4909 26376.4
 02 08 2016  02 15  -15.5081 26151.4   3439.3   7.4922 26376.6
 02 08 2016  02 16  -15.5079 26151.5   3439.9   7.4935 26376.8
 02 08 2016  02 17  -15.5080 26151.6   3439.3   7.4922 26376.8
 02 08 2016  02 18  -15.5085 26151.6   3439.3   7.4922 26376.8
 02 08 2016  02 19  -15.5084 26151.7   3438.7   7.4910 26376.8
 02 08 2016  02 20  -15.5083 26151.6   3439.1   7.4917 26376.8
 02 08 2016  02 21  -15.5078 26151.6   3439.1   7.4917 26376.8
 02 08 2016  02 22  -15.5079 26151.6   3439.5   7.4927 26376.8
 02 08 2016  02 23  -15.5082 26151.5   3439.3   7.4923 26376.7
 02 08 2016  02 24  -15.5079 26151.5   3439.3   7.4922 26376.7
 02 08 2016  02 25  -15.5079 26151.6   3439.3   7.4923 26376.8
 02 08 2016  02 26  -15.5079 26151.6   3439.8   7.4932 26376.8
 02 08 2016  02 27  -15.5077 26151.8   3439.5   7.4925 26377.0
 02 08 2016  02 28  -15.5071 26151.8   3439.8   7.4933 26377.0
 02 08 2016  02 29  -15.5077 26151.9   3439.1   7.4917 26377.0
 02 08 2016  02 30  -15.5080 26151.9   3439.3   7.4922 26377.1
 02 08 2016  02 31  -15.5073 26152.1   3439.7   7.4928 26377.4
 02 08 2016  02 32  -15.5077 26152.2   3439.6   7.4927 26377.4
 02 08 2016  02 33  -15.5076 26152.4   3438.7   7.4908 26377.5
 02 08 2016  02 34  -15.5076 26152.3   3439.2   7.4917 26377.5
 02 08 2016  02 35  -15.5076 26152.3   3439.4   7.4921 26377.5
 02 08 2016  02 36  -15.5076 26152.4   3438.6   7.4904 26377.5
 02 08 2016  02 37  -15.5072 26152.6   3438.9   7.4910 26377.7
 02 08 2016  02 38  -15.5068 26152.6   3439.4   7.4922 26377.8
 02 08 2016  02 39  -15.5074 26152.7   3438.7   7.4906 26377.8
 02 08 2016  02 40  -15.5076 26152.7   3439.2   7.4917 26377.9
 02 08 2016  02 41  -15.5069 26153.0   3439.2   7.4916 26378.2
 02 08 2016  02 42  -15.5071 26153.2   3439.4   7.4919 26378.4
 02 08 2016  02 43  -15.5070 26153.2   3439.2   7.4916 26378.4
 02 08 2016  02 44  -15.5071 26153.3   3438.7   7.4905 26378.4
 02 08 2016  02 45  -15.5072 26153.1   3438.9   7.4910 26378.2
 02 08 2016  02 46  -15.5073 26152.9   3438.9   7.4909 26378.0
 02 08 2016  02 47  -15.5073 26152.8   3438.8   7.4908 26377.9
 02 08 2016  02 48  -15.5075 26152.7   3438.7   7.4905 26377.8
 02 08 2016  02 49  -15.5075 26152.7   3438.8   7.4907 26377.8
 02 08 2016  02 50  -15.5074 26152.7   3438.9   7.4909 26377.8
 02 08 2016  02 51  -15.5074 26152.8   3439.1   7.4914 26377.9
 02 08 2016  02 52  -15.5074 26152.9   3438.3   7.4896 26377.9
 02 08 2016  02 53  -15.5073 26152.9   3438.8   7.4907 26378.0
 02 08 2016  02 54  -15.5072 26153.0   3438.9   7.4910 26378.1
 02 08 2016  02 55  -15.5073 26153.0   3438.8   7.4907 26378.1
 02 08 2016  02 56  -15.5071 26152.9   3439.0   7.4911 26378.0
 02 08 2016  02 57  -15.5071 26152.9   3438.6   7.4904 26378.0
 02 08 2016  02 58  -15.5074 26152.8   3438.5   7.4901 26377.9
 02 08 2016  02 59  -15.5076 26152.7   3438.7   7.4906 26377.8
 02 08 2016  03 00  -15.5071 26152.7   3439.3   7.4918 26377.9
 02 08 2016  03 01  -15.5076 26152.7   3438.7   7.4906 26377.8
 02 08 2016  03 02  -15.5073 26152.8   3439.4   7.4922 26378.0
 02 08 2016  03 03  -15.5074 26152.9   3438.7   7.4905 26378.0
 02 08 2016  03 04  -15.5072 26153.0   3439.0   7.4912 26378.1
 02 08 2016  03 05  -15.5074 26153.1   3438.2   7.4895 26378.1
 02 08 2016  03 06  -15.5073 26153.1   3438.5   7.4900 26378.2
 02 08 2016  03 07  -15.5069 26153.2   3438.9   7.4908 26378.3
 02 08 2016  03 08  -15.5072 26153.1   3438.9   7.4908 26378.2
 02 08 2016  03 09  -15.5067 26153.2   3438.9   7.4909 26378.3
 02 08 2016  03 10  -15.5070 26153.1   3438.7   7.4904 26378.2
 02 08 2016  03 11  -15.5071 26153.0   3438.8   7.4907 26378.1
 02 08 2016  03 12  -15.5078 26152.8   3438.4   7.4898 26377.8
 02 08 2016  03 13  -15.5075 26152.6   3438.7   7.4907 26377.7
 02 08 2016  03 14  -15.5078 26152.5   3439.0   7.4913 26377.7
 02 08 2016  03 15  -15.5079 26152.4   3438.3   7.4898 26377.5
 02 08 2016  03 16  -15.5076 26152.4   3437.9   7.4889 26377.4
 02 08 2016  03 17  -15.5073 26152.4   3438.9   7.4911 26377.5
 02 08 2016  03 18  -15.5076 26152.2   3438.7   7.4908 26377.4
 02 08 2016  03 19  -15.5076 26152.2   3438.2   7.4897 26377.3
 02 08 2016  03 20  -15.5077 26152.2   3438.5   7.4902 26377.3
 02 08 2016  03 21  -15.5076 26152.2   3438.6   7.4905 26377.3
 02 08 2016  03 22  -15.5079 26152.1   3438.5   7.4903 26377.2
 02 08 2016  03 23  -15.5075 26152.3   3438.3   7.4899 26377.3
 02 08 2016  03 24  -15.5076 26152.2   3439.1   7.4915 26377.3
 02 08 2016  03 25  -15.5078 26152.1   3438.8   7.4909 26377.2
 02 08 2016  03 26  -15.5081 26152.2   3438.4   7.4901 26377.3
 02 08 2016  03 27  -15.5075 26152.5   3438.9   7.4911 26377.6
 02 08 2016  03 28  -15.5074 26152.7   3439.1   7.4915 26377.9
 02 08 2016  03 29  -15.5076 26152.9   3439.2   7.4916 26378.0
 02 08 2016  03 30  -15.5072 26153.1   3439.1   7.4914 26378.2
 02 08 2016  03 31  -15.5073 26153.2   3439.3   7.4917 26378.3
 02 08 2016  03 32  -15.5074 26153.2   3438.4   7.4898 26378.3
 02 08 2016  03 33  -15.5073 26153.2   3438.7   7.4905 26378.3
 02 08 2016  03 34  -15.5075 26153.0   3438.9   7.4910 26378.2
 02 08 2016  03 35  -15.5075 26153.0   3439.5   7.4922 26378.2
 02 08 2016  03 36  -15.5075 26153.0   3439.4   7.4919 26378.2
 02 08 2016  03 37  -15.5076 26153.0   3439.2   7.4916 26378.2
 02 08 2016  03 38  -15.5075 26153.0   3439.6   7.4924 26378.2
 02 08 2016  03 39  -15.5073 26153.0   3438.9   7.4909 26378.1
 02 08 2016  03 40  -15.5075 26153.0   3438.3   7.4896 26378.1
 02 08 2016  03 41  -15.5075 26153.0   3438.9   7.4910 26378.1
 02 08 2016  03 42  -15.5070 26153.2   3439.5   7.4921 26378.4
 02 08 2016  03 43  -15.5072 26153.3   3438.5   7.4901 26378.4
 02 08 2016  03 44  -15.5069 26153.5   3439.4   7.4919 26378.7
 02 08 2016  03 45  -15.5069 26153.6   3438.9   7.4908 26378.7
 02 08 2016  03 46  -15.5070 26153.6   3439.4   7.4918 26378.8
 02 08 2016  03 47  -15.5067 26153.7   3439.1   7.4911 26378.8
 02 08 2016  03 48  -15.5074 26153.5   3438.5   7.4899 26378.5
 02 08 2016  03 49  -15.5073 26153.2   3438.4   7.4899 26378.3
 02 08 2016  03 50  -15.5070 26153.0   3438.7   7.4905 26378.1
 02 08 2016  03 51  -15.5071 26152.7   3439.1   7.4914 26377.8
 02 08 2016  03 52  -15.5073 26152.5   3438.1   7.4894 26377.6
 02 08 2016  03 53  -15.5076 26152.3   3439.0   7.4913 26377.4
 02 08 2016  03 54  -15.5073 26152.2   3439.0   7.4914 26377.3
 02 08 2016  03 55  -15.5072 26152.1   3438.7   7.4909 26377.2
 02 08 2016  03 56  -15.5074 26152.0   3438.6   7.4905 26377.1
 02 08 2016  03 57  -15.5075 26151.9   3439.4   7.4923 26377.1
 02 08 2016  03 58  -15.5076 26151.9   3438.7   7.4908 26377.1
 02 08 2016  03 59  -15.5072 26152.1   3438.6   7.4905 26377.2
 02 08 2016  04 00  -15.5075 26152.1   3439.0   7.4915 26377.3
 02 08 2016  04 01  -15.5073 26152.3   3438.6   7.4904 26377.4
 02 08 2016  04 02  -15.5072 26152.3   3439.5   7.4924 26377.5
 02 08 2016  04 03  -15.5066 26152.5   3439.5   7.4924 26377.8
 02 08 2016  04 04  -15.5072 26152.5   3439.1   7.4915 26377.6
 02 08 2016  04 05  -15.5070 26152.6   3439.0   7.4913 26377.8
 02 08 2016  04 06  -15.5069 26152.7   3439.1   7.4915 26377.8
 02 08 2016  04 07  -15.5070 26152.7   3439.2   7.4916 26377.9
 02 08 2016  04 08  -15.5071 26152.7   3439.1   7.4915 26377.9
 02 08 2016  04 09  -15.5070 26152.8   3439.0   7.4913 26377.9
 02 08 2016  04 10  -15.5070 26152.9   3439.3   7.4917 26378.0
 02 08 2016  04 11  -15.5070 26152.9   3439.1   7.4915 26378.0
 02 08 2016  04 12  -15.5070 26152.9   3439.2   7.4915 26378.1
 02 08 2016  04 13  -15.5070 26152.9   3439.2   7.4916 26378.0
 02 08 2016  04 14  -15.5070 26152.8   3439.2   7.4916 26378.0
 02 08 2016  04 15  -15.5074 26152.7   3438.7   7.4905 26377.8
 02 08 2016  04 16  -15.5069 26152.9   3439.0   7.4911 26378.0
 02 08 2016  04 17  -15.5066 26153.0   3439.5   7.4922 26378.2
 02 08 2016  04 18  -15.5072 26153.0   3439.0   7.4911 26378.1
 02 08 2016  04 19  -15.5067 26153.1   3439.4   7.4920 26378.3
 02 08 2016  04 20  -15.5069 26153.2   3439.1   7.4912 26378.4
 02 08 2016  04 21  -15.5068 26153.3   3439.4   7.4919 26378.5
 02 08 2016  04 22  -15.5073 26153.3   3439.2   7.4914 26378.5
 02 08 2016  04 23  -15.5073 26153.4   3439.3   7.4916 26378.6
 02 08 2016  04 24  -15.5071 26153.6   3438.6   7.4901 26378.7
 02 08 2016  04 25  -15.5067 26153.7   3438.6   7.4901 26378.8
 02 08 2016  04 26  -15.5065 26153.9   3439.0   7.4908 26379.0
 02 08 2016  04 27  -15.5064 26154.0   3438.9   7.4906 26379.1
 02 08 2016  04 28  -15.5065 26154.1   3439.3   7.4914 26379.2
 02 08 2016  04 29  -15.5071 26154.1   3439.3   7.4914 26379.2
 02 08 2016  04 30  -15.5069 26154.1   3438.6   7.4901 26379.2
 02 08 2016  04 31  -15.5067 26154.0   3439.2   7.4913 26379.2
 02 08 2016  04 32  -15.5070 26154.0   3439.3   7.4916 26379.2
 02 08 2016  04 33  -15.5069 26154.1   3438.8   7.4905 26379.2
 02 08 2016  04 34  -15.5064 26154.2   3439.1   7.4911 26379.4
 02 08 2016  04 35  -15.5070 26154.2   3438.8   7.4904 26379.3
 02 08 2016  04 36  -15.5064 26154.3   3439.1   7.4910 26379.5
 02 08 2016  04 37  -15.5064 26154.4   3438.9   7.4906 26379.5
 02 08 2016  04 38  -15.5063 26154.6   3439.0   7.4908 26379.7
 02 08 2016  04 39  -15.5065 26154.6   3439.4   7.4915 26379.7
 02 08 2016  04 40  -15.5067 26154.6   3439.3   7.4913 26379.7
 02 08 2016  04 41  -15.5069 26154.6   3439.5   7.4918 26379.8
 02 08 2016  04 42  -15.5064 26154.9   3439.0   7.4907 26380.0
 02 08 2016  04 43  -15.5064 26155.0   3439.5   7.4916 26380.2
 02 08 2016  04 44  -15.5063 26155.3   3439.0   7.4906 26380.4
 02 08 2016  04 45  -15.5060 26155.8   3439.5   7.4914 26381.0
 02 08 2016  04 46  -15.5056 26156.5   3439.9   7.4920 26381.8
 02 08 2016  04 47  -15.5057 26157.2   3440.3   7.4928 26382.5
 02 08 2016  04 48  -15.5060 26157.8   3439.8   7.4915 26383.0
 02 08 2016  04 49  -15.5053 26158.7   3440.1   7.4919 26383.9
 02 08 2016  04 50  -15.5052 26159.4   3440.7   7.4930 26384.7
 02 08 2016  04 51  -15.5049 26160.3   3440.7   7.4928 26385.6
 02 08 2016  04 52  -15.5044 26161.2   3440.9   7.4929 26386.5
 02 08 2016  04 53  -15.5038 26162.1   3440.9   7.4927 26387.4
 02 08 2016  04 54  -15.5035 26162.9   3441.0   7.4926 26388.2
 02 08 2016  04 55  -15.5031 26163.7   3440.9   7.4923 26389.0
 02 08 2016  04 56  -15.5025 26164.7   3441.3   7.4928 26390.1
 02 08 2016  04 57  -15.5019 26165.8   3441.6   7.4931 26391.2
 02 08 2016  04 58  -15.5012 26166.9   3441.9   7.4934 26392.3
 02 08 2016  04 59  -15.5007 26168.0   3442.1   7.4936 26393.4
 02 08 2016  05 00  -15.5000 26169.1   3441.9   7.4928 26394.4
 02 08 2016  05 01  -15.4995 26169.8   3441.9   7.4927 26395.1
 02 08 2016  05 02  -15.4991 26170.2   3441.5   7.4917 26395.5
 02 08 2016  05 03  -15.4990 26170.4   3441.1   7.4907 26395.7
 02 08 2016  05 04  -15.4990 26170.3   3441.5   7.4916 26395.6
 02 08 2016  05 05  -15.4993 26170.0   3440.1   7.4888 26395.1
 02 08 2016  05 06  -15.4993 26169.5   3439.3   7.4870 26394.6
 02 08 2016  05 07  -15.4995 26169.1   3439.4   7.4874 26394.2
 02 08 2016  05 08  -15.5000 26168.5   3439.4   7.4877 26393.6
 02 08 2016  05 09  -15.5003 26168.1   3438.4   7.4856 26393.0
