Manaus - AM                    UNIVAP-03  <276> 1 Min. Reported data

 DD MM YYYY  HH MM   D(Deg)  H(nT)   Z(nT)   I(Deg)   F(nT)

 02 10 2016  00 00  -15.5185 26112.4   3400.0   7.4186 26332.8
 02 10 2016  00 01  -15.5174 26112.8   3399.9   7.4183 26333.2
 02 10 2016  00 02  -15.5174 26112.6   3400.0   7.4185 26333.0
 02 10 2016  00 03  -15.5194 26112.3   3398.1   7.4145 26332.5
 02 10 2016  00 04  -15.5175 26112.5   3399.2   7.4168 26332.8
 02 10 2016  00 05  -15.5186 26112.5   3398.8   7.4159 26332.8
 02 10 2016  00 06  -15.5192 26112.4   3398.3   7.4148 26332.6
 02 10 2016  00 07  -15.5189 26112.0   3399.7   7.4179 26332.3
 02 10 2016  00 08  -15.5189 26111.7   3400.0   7.4187 26332.1
 02 10 2016  00 09  -15.5201 26111.5   3397.9   7.4143 26331.7
 02 10 2016  00 10  -15.5197 26111.2   3399.5   7.4178 26331.6
 02 10 2016  00 11  -15.5199 26111.2   3399.3   7.4174 26331.5
 02 10 2016  00 12  -15.5200 26111.0   3399.8   7.4185 26331.4
 02 10 2016  00 13  -15.5205 26111.0   3398.9   7.4166 26331.3
 02 10 2016  00 14  -15.5210 26110.6   3399.0   7.4168 26330.9
 02 10 2016  00 15  -15.5218 26110.0   3398.8   7.4167 26330.2
 02 10 2016  00 16  -15.5212 26109.6   3398.7   7.4165 26329.9
 02 10 2016  00 17  -15.5215 26109.4   3397.6   7.4141 26329.6
 02 10 2016  00 18  -15.5221 26108.9   3398.2   7.4157 26329.1
 02 10 2016  00 19  -15.5224 26108.5   3397.9   7.4151 26328.7
 02 10 2016  00 20  -15.5204 26108.5   3399.4   7.4184 26328.8
 02 10 2016  00 21  -15.5218 26108.0   3398.2   7.4159 26328.2
 02 10 2016  00 22  -15.5223 26107.6   3397.6   7.4147 26327.7
 02 10 2016  00 23  -15.5218 26107.2   3399.0   7.4178 26327.5
 02 10 2016  00 24  -15.5225 26107.0   3397.6   7.4148 26327.2
 02 10 2016  00 25  -15.5235 26106.8   3398.2   7.4162 26327.0
 02 10 2016  00 26  -15.5221 26107.3   3398.9   7.4176 26327.6
 02 10 2016  00 27  -15.5219 26107.4   3398.9   7.4176 26327.7
 02 10 2016  00 28  -15.5224 26107.3   3398.8   7.4174 26327.6
 02 10 2016  00 29  -15.5221 26107.3   3398.4   7.4165 26327.5
 02 10 2016  00 30  -15.5216 26106.9   3399.8   7.4196 26327.3
 02 10 2016  00 31  -15.5224 26106.5   3399.1   7.4183 26326.8
 02 10 2016  00 32  -15.5224 26106.0   3399.8   7.4198 26326.4
 02 10 2016  00 33  -15.5225 26105.9   3398.2   7.4164 26326.1
 02 10 2016  00 34  -15.5222 26105.6   3398.5   7.4172 26325.9
 02 10 2016  00 35  -15.5229 26105.2   3399.6   7.4198 26325.6
 02 10 2016  00 36  -15.5231 26104.8   3399.9   7.4203 26325.3
 02 10 2016  00 37  -15.5235 26104.6   3398.8   7.4181 26324.9
 02 10 2016  00 38  -15.5246 26104.1   3398.2   7.4169 26324.4
 02 10 2016  00 39  -15.5241 26104.2   3398.2   7.4170 26324.4
 02 10 2016  00 40  -15.5239 26104.0   3398.6   7.4179 26324.3
 02 10 2016  00 41  -15.5243 26103.8   3398.6   7.4179 26324.1
 02 10 2016  00 42  -15.5246 26103.5   3398.9   7.4186 26323.9
 02 10 2016  00 43  -15.5245 26103.3   3399.1   7.4192 26323.7
 02 10 2016  00 44  -15.5240 26103.2   3399.0   7.4191 26323.6
 02 10 2016  00 45  -15.5244 26102.8   3398.8   7.4186 26323.2
 02 10 2016  00 46  -15.5243 26102.6   3398.8   7.4187 26322.9
 02 10 2016  00 47  -15.5243 26102.3   3398.6   7.4183 26322.7
 02 10 2016  00 48  -15.5243 26102.3   3398.8   7.4187 26322.6
 02 10 2016  00 49  -15.5242 26102.4   3398.9   7.4191 26322.7
 02 10 2016  00 50  -15.5241 26102.2   3399.6   7.4205 26322.6
 02 10 2016  00 51  -15.5235 26102.6   3398.6   7.4182 26322.9
 02 10 2016  00 52  -15.5234 26102.5   3399.3   7.4199 26322.9
 02 10 2016  00 53  -15.5231 26102.5   3399.8   7.4209 26323.0
 02 10 2016  00 54  -15.5233 26102.5   3399.7   7.4207 26322.9
 02 10 2016  00 55  -15.5233 26102.7   3398.9   7.4189 26323.1
 02 10 2016  00 56  -15.5234 26102.6   3399.9   7.4211 26323.1
 02 10 2016  00 57  -15.5232 26102.7   3399.0   7.4191 26323.1
 02 10 2016  00 58  -15.5232 26102.4   3399.9   7.4212 26322.9
 02 10 2016  00 59  -15.5227 26102.4   3399.6   7.4206 26322.8
 02 10 2016  01 00  -15.5230 26102.0   3399.9   7.4213 26322.5
 02 10 2016  01 01  -15.5220 26102.2   3399.7   7.4207 26322.7
 02 10 2016  01 02  -15.5219 26102.1   3400.3   7.4221 26322.7
 02 10 2016  01 03  -15.5223 26102.3   3399.3   7.4199 26322.7
 02 10 2016  01 04  -15.5223 26102.3   3399.9   7.4212 26322.8
 02 10 2016  01 05  -15.5213 26102.7   3399.4   7.4200 26323.1
 02 10 2016  01 06  -15.5214 26102.3   3401.5   7.4246 26323.0
 02 10 2016  01 07  -15.5224 26102.3   3400.2   7.4219 26322.8
 02 10 2016  01 08  -15.5207 26102.6   3401.9   7.4253 26323.4
 02 10 2016  01 09  -15.5210 26103.1   3400.1   7.4213 26323.6
 02 10 2016  01 10  -15.5209 26103.1   3401.0   7.4234 26323.7
 02 10 2016  01 11  -15.5213 26103.3   3400.0   7.4212 26323.8
 02 10 2016  01 12  -15.5209 26103.5   3400.9   7.4230 26324.1
 02 10 2016  01 13  -15.5212 26103.9   3400.9   7.4230 26324.5
 02 10 2016  01 14  -15.5207 26104.7   3401.1   7.4232 26325.3
 02 10 2016  01 15  -15.5211 26105.1   3401.3   7.4235 26325.8
 02 10 2016  01 16  -15.5200 26105.9   3401.7   7.4240 26326.6
 02 10 2016  01 17  -15.5200 26106.3   3401.7   7.4239 26327.0
 02 10 2016  01 18  -15.5199 26106.6   3401.6   7.4236 26327.3
 02 10 2016  01 19  -15.5197 26106.6   3401.7   7.4238 26327.3
 02 10 2016  01 20  -15.5197 26106.6   3401.4   7.4231 26327.3
 02 10 2016  01 21  -15.5194 26106.5   3401.5   7.4234 26327.2
 02 10 2016  01 22  -15.5191 26106.5   3401.5   7.4234 26327.2
 02 10 2016  01 23  -15.5188 26106.6   3401.2   7.4227 26327.2
 02 10 2016  01 24  -15.5183 26106.7   3401.3   7.4230 26327.3
 02 10 2016  01 25  -15.5186 26106.6   3400.9   7.4222 26327.2
 02 10 2016  01 26  -15.5177 26106.4   3401.8   7.4241 26327.1
 02 10 2016  01 27  -15.5182 26106.1   3400.5   7.4214 26326.6
 02 10 2016  01 28  -15.5177 26105.9   3400.5   7.4215 26326.5
 02 10 2016  01 29  -15.5176 26105.8   3401.1   7.4227 26326.5
 02 10 2016  01 30  -15.5168 26106.1   3400.7   7.4219 26326.6
 02 10 2016  01 31  -15.5166 26106.2   3401.5   7.4235 26326.8
 02 10 2016  01 32  -15.5168 26106.5   3400.7   7.4218 26327.1
 02 10 2016  01 33  -15.5164 26106.7   3401.2   7.4227 26327.3
 02 10 2016  01 34  -15.5162 26106.8   3401.2   7.4227 26327.4
 02 10 2016  01 35  -15.5166 26106.8   3400.9   7.4222 26327.4
 02 10 2016  01 36  -15.5174 26106.7   3400.3   7.4208 26327.2
 02 10 2016  01 37  -15.5173 26106.5   3400.8   7.4218 26327.1
 02 10 2016  01 38  -15.5172 26106.7   3400.8   7.4218 26327.3
 02 10 2016  01 39  -15.5188 26106.1   3401.0   7.4225 26326.7
 02 10 2016  01 40  -15.5201 26105.9   3400.7   7.4218 26326.5
 02 10 2016  01 41  -15.5205 26106.1   3399.7   7.4198 26326.5
 02 10 2016  01 42  -15.5216 26105.8   3400.6   7.4216 26326.4
 02 10 2016  01 43  -15.5202 26106.1   3401.6   7.4237 26326.8
 02 10 2016  01 44  -15.5214 26105.7   3401.7   7.4240 26326.4
 02 10 2016  01 45  -15.5211 26105.5   3401.5   7.4238 26326.2
 02 10 2016  01 46  -15.5217 26105.4   3399.5   7.4194 26325.8
 02 10 2016  01 47  -15.5222 26105.1   3398.7   7.4179 26325.4
 02 10 2016  01 48  -15.5224 26104.6   3399.1   7.4188 26325.0
 02 10 2016  01 49  -15.5226 26103.9   3401.1   7.4233 26324.6
 02 10 2016  01 50  -15.5238 26103.1   3400.8   7.4229 26323.7
 02 10 2016  01 51  -15.5247 26102.4   3399.4   7.4200 26322.8
 02 10 2016  01 52  -15.5247 26101.8   3398.4   7.4181 26322.1
 02 10 2016  01 53  -15.5253 26100.7   3399.1   7.4200 26321.1
 02 10 2016  01 54  -15.5243 26100.2   3400.4   7.4228 26320.8
 02 10 2016  01 55  -15.5247 26099.9   3398.9   7.4198 26320.3
 02 10 2016  01 56  -15.5239 26100.1   3399.7   7.4213 26320.6
 02 10 2016  01 57  -15.5233 26100.5   3399.6   7.4211 26321.0
 02 10 2016  01 58  -15.5235 26100.7   3401.0   7.4241 26321.4
 02 10 2016  01 59  -15.5235 26101.4   3401.1   7.4240 26322.0
 02 10 2016  02 00  -15.5215 26102.1   3402.1   7.4260 26322.9
 02 10 2016  02 01  -15.5228 26102.5   3400.7   7.4227 26323.1
 02 10 2016  02 02  -15.5220 26102.6   3401.7   7.4250 26323.3
 02 10 2016  02 03  -15.5228 26102.5   3401.7   7.4250 26323.2
 02 10 2016  02 04  -15.5228 26102.4   3401.6   7.4247 26323.1
 02 10 2016  02 05  -15.5235 26102.5   3400.7   7.4229 26323.0
 02 10 2016  02 06  -15.5236 26102.1   3400.7   7.4229 26322.7
 02 10 2016  02 07  -15.5238 26102.2   3400.3   7.4221 26322.7
 02 10 2016  02 08  -15.5239 26102.2   3400.5   7.4225 26322.8
 02 10 2016  02 09  -15.5249 26101.7   3400.2   7.4220 26322.2
 02 10 2016  02 10  -15.5247 26101.4   3400.3   7.4222 26322.0
 02 10 2016  02 11  -15.5251 26101.2   3400.3   7.4223 26321.8
 02 10 2016  02 12  -15.5255 26101.0   3400.3   7.4223 26321.5
 02 10 2016  02 13  -15.5250 26101.4   3400.6   7.4230 26322.0
 02 10 2016  02 14  -15.5255 26100.8   3400.3   7.4225 26321.4
 02 10 2016  02 15  -15.5255 26100.8   3400.5   7.4228 26321.4
 02 10 2016  02 16  -15.5258 26100.5   3400.4   7.4228 26321.1
 02 10 2016  02 17  -15.5261 26100.2   3399.6   7.4211 26320.6
 02 10 2016  02 18  -15.5256 26100.2   3400.4   7.4228 26320.8
 02 10 2016  02 19  -15.5264 26100.2   3400.1   7.4221 26320.8
 02 10 2016  02 20  -15.5262 26100.5   3400.2   7.4224 26321.1
 02 10 2016  02 21  -15.5278 26100.5   3400.0   7.4220 26321.0
 02 10 2016  02 22  -15.5260 26100.8   3402.2   7.4264 26321.6
 02 10 2016  02 23  -15.5259 26101.0   3401.9   7.4259 26321.8
 02 10 2016  02 24  -15.5267 26101.0   3401.3   7.4245 26321.7
 02 10 2016  02 25  -15.5268 26101.0   3400.5   7.4227 26321.6
 02 10 2016  02 26  -15.5273 26100.7   3401.2   7.4244 26321.4
 02 10 2016  02 27  -15.5267 26101.0   3401.0   7.4238 26321.7
 02 10 2016  02 28  -15.5268 26100.7   3401.0   7.4239 26321.3
 02 10 2016  02 29  -15.5267 26100.4   3400.9   7.4238 26321.1
 02 10 2016  02 30  -15.5260 26100.3   3400.9   7.4239 26320.9
 02 10 2016  02 31  -15.5255 26100.1   3400.7   7.4235 26320.7
 02 10 2016  02 32  -15.5250 26099.7   3400.9   7.4240 26320.4
 02 10 2016  02 33  -15.5247 26099.4   3400.9   7.4241 26320.1
 02 10 2016  02 34  -15.5243 26099.3   3400.8   7.4240 26319.9
 02 10 2016  02 35  -15.5241 26099.3   3400.7   7.4237 26319.9
 02 10 2016  02 36  -15.5240 26099.2   3401.0   7.4244 26319.9
 02 10 2016  02 37  -15.5237 26099.1   3401.7   7.4259 26319.9
 02 10 2016  02 38  -15.5232 26099.5   3400.6   7.4234 26320.1
 02 10 2016  02 39  -15.5238 26099.6   3400.5   7.4232 26320.2
 02 10 2016  02 40  -15.5248 26099.5   3400.8   7.4239 26320.1
 02 10 2016  02 41  -15.5229 26099.9   3401.7   7.4258 26320.6
 02 10 2016  02 42  -15.5231 26099.9   3401.9   7.4262 26320.6
 02 10 2016  02 43  -15.5232 26100.2   3401.9   7.4261 26321.0
 02 10 2016  02 44  -15.5239 26100.6   3402.8   7.4280 26321.5
 02 10 2016  02 45  -15.5232 26101.1   3402.1   7.4263 26321.9
 02 10 2016  02 46  -15.5220 26101.5   3404.1   7.4304 26322.5
 02 10 2016  02 47  -15.5230 26102.1   3401.9   7.4255 26322.8
 02 10 2016  02 48  -15.5220 26102.9   3402.5   7.4266 26323.7
 02 10 2016  02 49  -15.5235 26103.0   3402.4   7.4264 26323.8
 02 10 2016  02 50  -15.5222 26103.7   3402.1   7.4256 26324.5
 02 10 2016  02 51  -15.5228 26103.8   3402.8   7.4270 26324.7
 02 10 2016  02 52  -15.5217 26104.3   3403.7   7.4287 26325.2
 02 10 2016  02 53  -15.5227 26105.1   3401.9   7.4247 26325.8
 02 10 2016  02 54  -15.5209 26105.9   3403.7   7.4283 26326.8
 02 10 2016  02 55  -15.5206 26107.0   3404.4   7.4295 26328.0
 02 10 2016  02 56  -15.5206 26108.1   3404.1   7.4286 26329.1
 02 10 2016  02 57  -15.5193 26109.3   3405.2   7.4306 26330.4
 02 10 2016  02 58  -15.5207 26110.0   3405.1   7.4302 26331.1
 02 10 2016  02 59  -15.5208 26110.5   3405.2   7.4303 26331.6
 02 10 2016  03 00  -15.5203 26111.9   3403.2   7.4255 26332.8
 02 10 2016  03 01  -15.5191 26112.2   3404.3   7.4280 26333.2
 02 10 2016  03 02  -15.5186 26112.6   3403.9   7.4268 26333.5
 02 10 2016  03 03  -15.5189 26112.9   3404.1   7.4272 26333.9
 02 10 2016  03 04  -15.5195 26113.3   3402.9   7.4246 26334.1
 02 10 2016  03 05  -15.5190 26113.7   3404.1   7.4270 26334.7
 02 10 2016  03 06  -15.5202 26114.1   3403.2   7.4249 26334.9
 02 10 2016  03 07  -15.5205 26114.4   3402.1   7.4226 26335.1
 02 10 2016  03 08  -15.5186 26115.3   3403.8   7.4259 26336.2
 02 10 2016  03 09  -15.5198 26115.8   3403.6   7.4254 26336.7
 02 10 2016  03 10  -15.5194 26116.6   3403.1   7.4240 26337.4
 02 10 2016  03 11  -15.5193 26116.6   3403.1   7.4241 26337.4
 02 10 2016  03 12  -15.5196 26116.0   3402.7   7.4233 26336.8
 02 10 2016  03 13  -15.5197 26116.1   3402.4   7.4227 26336.8
 02 10 2016  03 14  -15.5192 26116.4   3402.7   7.4233 26337.2
 02 10 2016  03 15  -15.5188 26117.0   3402.8   7.4234 26337.7
 02 10 2016  03 16  -15.5186 26117.4   3403.1   7.4238 26338.2
 02 10 2016  03 17  -15.5191 26117.9   3402.4   7.4222 26338.5
 02 10 2016  03 18  -15.5193 26118.1   3403.1   7.4237 26338.9
 02 10 2016  03 19  -15.5197 26118.4   3402.5   7.4222 26339.1
 02 10 2016  03 20  -15.5198 26118.2   3402.3   7.4218 26338.8
 02 10 2016  03 21  -15.5203 26118.0   3402.0   7.4213 26338.6
 02 10 2016  03 22  -15.5209 26117.8   3402.8   7.4231 26338.5
 02 10 2016  03 23  -15.5208 26118.2   3402.4   7.4220 26338.8
 02 10 2016  03 24  -15.5211 26118.3   3401.8   7.4208 26338.9
 02 10 2016  03 25  -15.5203 26118.4   3402.5   7.4222 26339.1
 02 10 2016  03 26  -15.5212 26117.8   3402.1   7.4215 26338.5
 02 10 2016  03 27  -15.5223 26117.4   3401.4   7.4201 26338.0
 02 10 2016  03 28  -15.5207 26117.1   3403.1   7.4238 26337.9
 02 10 2016  03 29  -15.5217 26117.0   3401.3   7.4200 26337.5
 02 10 2016  03 30  -15.5214 26116.8   3401.7   7.4210 26337.4
 02 10 2016  03 31  -15.5217 26116.3   3401.6   7.4208 26336.9
 02 10 2016  03 32  -15.5218 26116.1   3400.1   7.4177 26336.5
 02 10 2016  03 33  -15.5214 26115.5   3401.4   7.4207 26336.1
 02 10 2016  03 34  -15.5207 26115.1   3401.5   7.4211 26335.7
 02 10 2016  03 35  -15.5223 26114.7   3401.4   7.4209 26335.3
 02 10 2016  03 36  -15.5214 26115.0   3401.9   7.4219 26335.6
 02 10 2016  03 37  -15.5224 26115.0   3401.1   7.4203 26335.5
 02 10 2016  03 38  -15.5237 26115.0   3401.9   7.4219 26335.7
 02 10 2016  03 39  -15.5239 26115.6   3401.1   7.4200 26336.1
 02 10 2016  03 40  -15.5241 26115.4   3402.5   7.4230 26336.2
 02 10 2016  03 41  -15.5259 26114.6   3399.5   7.4169 26335.0
 02 10 2016  03 42  -15.5258 26114.2   3399.4   7.4168 26334.5
 02 10 2016  03 43  -15.5256 26113.2   3401.0   7.4206 26333.8
 02 10 2016  03 44  -15.5251 26112.7   3400.3   7.4192 26333.2
 02 10 2016  03 45  -15.5244 26112.8   3400.9   7.4203 26333.3
 02 10 2016  03 46  -15.5252 26113.2   3400.1   7.4185 26333.6
 02 10 2016  03 47  -15.5253 26113.7   3399.6   7.4172 26334.1
 02 10 2016  03 48  -15.5265 26113.3   3401.1   7.4207 26333.9
 02 10 2016  03 49  -15.5257 26114.2   3400.7   7.4194 26334.7
 02 10 2016  03 50  -15.5245 26114.5   3401.2   7.4204 26335.0
 02 10 2016  03 51  -15.5252 26113.9   3402.7   7.4238 26334.7
 02 10 2016  03 52  -15.5250 26114.3   3401.3   7.4208 26334.9
 02 10 2016  03 53  -15.5242 26114.3   3402.0   7.4223 26334.9
 02 10 2016  03 54  -15.5237 26114.2   3400.8   7.4199 26334.7
 02 10 2016  03 55  -15.5227 26114.0   3401.9   7.4221 26334.7
 02 10 2016  03 56  -15.5217 26114.1   3400.9   7.4201 26334.7
 02 10 2016  03 57  -15.5222 26114.0   3399.7   7.4173 26334.4
 02 10 2016  03 58  -15.5220 26113.8   3400.8   7.4199 26334.3
 02 10 2016  03 59  -15.5217 26113.9   3400.8   7.4198 26334.4
 02 10 2016  04 00  -15.5210 26114.6   3399.7   7.4172 26334.9
 02 10 2016  04 01  -15.5219 26114.5   3400.9   7.4199 26335.0
 02 10 2016  04 02  -15.5198 26114.8   3402.6   7.4235 26335.5
 02 10 2016  04 03  -15.5204 26114.6   3401.0   7.4201 26335.1
 02 10 2016  04 04  -15.5197 26114.4   3400.4   7.4189 26334.8
 02 10 2016  04 05  -15.5193 26113.8   3400.1   7.4184 26334.2
 02 10 2016  04 06  -15.5194 26113.4   3399.9   7.4181 26333.8
 02 10 2016  04 07  -15.5206 26112.8   3399.4   7.4171 26333.2
 02 10 2016  04 08  -15.5203 26113.0   3399.5   7.4172 26333.4
 02 10 2016  04 09  -15.5207 26112.9   3400.0   7.4184 26333.3
 02 10 2016  04 10  -15.5211 26112.8   3399.6   7.4175 26333.2
 02 10 2016  04 11  -15.5215 26112.7   3399.4   7.4171 26333.0
 02 10 2016  04 12  -15.5213 26112.7   3400.0   7.4183 26333.1
 02 10 2016  04 13  -15.5219 26113.1   3399.3   7.4169 26333.4
 02 10 2016  04 14  -15.5217 26113.7   3400.2   7.4185 26334.1
 02 10 2016  04 15  -15.5219 26114.3   3400.1   7.4183 26334.7
 02 10 2016  04 16  -15.5218 26114.8   3400.6   7.4191 26335.3
 02 10 2016  04 17  -15.5223 26115.0   3400.4   7.4187 26335.5
 02 10 2016  04 18  -15.5223 26114.9   3400.0   7.4178 26335.3
 02 10 2016  04 19  -15.5221 26115.0   3399.9   7.4176 26335.4
 02 10 2016  04 20  -15.5221 26115.1   3400.5   7.4188 26335.6
 02 10 2016  04 21  -15.5224 26115.2   3399.7   7.4170 26335.6
 02 10 2016  04 22  -15.5234 26114.9   3398.3   7.4143 26335.1
 02 10 2016  04 23  -15.5225 26114.8   3400.4   7.4187 26335.3
 02 10 2016  04 24  -15.5215 26115.1   3400.7   7.4194 26335.6
 02 10 2016  04 25  -15.5235 26114.8   3400.0   7.4178 26335.2
 02 10 2016  04 26  -15.5223 26114.8   3400.4   7.4186 26335.2
 02 10 2016  04 27  -15.5225 26114.8   3398.9   7.4154 26335.0
 02 10 2016  04 28  -15.5232 26114.5   3399.2   7.4161 26334.8
 02 10 2016  04 29  -15.5261 26114.2   3397.5   7.4126 26334.3
 02 10 2016  04 30  -15.5259 26114.1   3399.3   7.4166 26334.4
 02 10 2016  04 31  -15.5264 26114.3   3398.5   7.4148 26334.5
 02 10 2016  04 32  -15.5263 26114.2   3398.6   7.4150 26334.5
 02 10 2016  04 33  -15.5265 26113.7   3398.0   7.4139 26333.8
 02 10 2016  04 34  -15.5274 26112.3   3398.0   7.4142 26332.5
 02 10 2016  04 35  -15.5273 26111.4   3398.2   7.4149 26331.6
 02 10 2016  04 36  -15.5282 26111.3   3396.5   7.4113 26331.3
 02 10 2016  04 37  -15.5271 26111.6   3398.4   7.4152 26331.8
 02 10 2016  04 38  -15.5277 26111.5   3397.0   7.4124 26331.5
 02 10 2016  04 39  -15.5261 26111.4   3397.3   7.4130 26331.4
 02 10 2016  04 40  -15.5268 26110.8   3398.0   7.4147 26331.0
 02 10 2016  04 41  -15.5247 26111.0   3398.0   7.4145 26331.1
 02 10 2016  04 42  -15.5241 26111.0   3399.0   7.4167 26331.3
 02 10 2016  04 43  -15.5248 26111.0   3399.1   7.4170 26331.3
 02 10 2016  04 44  -15.5244 26111.3   3399.4   7.4176 26331.7
 02 10 2016  04 45  -15.5240 26111.6   3399.2   7.4171 26331.9
 02 10 2016  04 46  -15.5234 26111.6   3399.1   7.4167 26331.9
 02 10 2016  04 47  -15.5241 26111.1   3398.0   7.4147 26331.2
 02 10 2016  04 48  -15.5246 26110.4   3398.5   7.4159 26330.7
 02 10 2016  04 49  -15.5256 26110.0   3398.3   7.4156 26330.2
 02 10 2016  04 50  -15.5253 26110.3   3397.0   7.4127 26330.4
 02 10 2016  04 51  -15.5253 26110.1   3398.7   7.4164 26330.4
 02 10 2016  04 52  -15.5267 26109.9   3399.8   7.4189 26330.3
 02 10 2016  04 53  -15.5269 26110.2   3400.3   7.4198 26330.7
 02 10 2016  04 54  -15.5272 26110.9   3398.7   7.4161 26331.2
 02 10 2016  04 55  -15.5258 26111.9   3399.6   7.4178 26332.2
 02 10 2016  04 56  -15.5260 26112.3   3400.6   7.4199 26332.8
 02 10 2016  04 57  -15.5263 26112.9   3399.5   7.4173 26333.2
 02 10 2016  04 58  -15.5265 26113.0   3399.5   7.4174 26333.3
 02 10 2016  04 59  -15.5284 26112.4   3399.2   7.4168 26332.7
 02 10 2016  05 00  -15.5280 26112.1   3400.4   7.4194 26332.5
 02 10 2016  05 01  -15.5278 26112.2   3398.2   7.4147 26332.3
 02 10 2016  05 02  -15.5289 26111.4   3398.1   7.4147 26331.6
 02 10 2016  05 03  -15.5289 26110.7   3399.6   7.4182 26331.0
 02 10 2016  05 04  -15.5284 26110.4   3400.7   7.4206 26330.9
 02 10 2016  05 05  -15.5274 26110.5   3400.7   7.4205 26331.0
 02 10 2016  05 06  -15.5279 26110.1   3399.9   7.4191 26330.5
 02 10 2016  05 07  -15.5295 26109.4   3399.3   7.4178 26329.8
 02 10 2016  05 08  -15.5304 26109.1   3399.6   7.4186 26329.5
 02 10 2016  05 09  -15.5304 26109.2   3399.7   7.4188 26329.7
