Manaus - AM                    UNIVAP-03  <245> 1 Min. Reported data

 DD MM YYYY  HH MM   D(Deg)  H(nT)   Z(nT)   I(Deg)   F(nT)

 01 09 2016  00 00  -15.5148 26125.2   3424.0   7.4667 26348.6
 01 09 2016  00 01  -15.5152 26125.2   3425.2   7.4693 26348.8
 01 09 2016  00 02  -15.5149 26125.4   3425.6   7.4700 26349.1
 01 09 2016  00 03  -15.5155 26125.6   3424.4   7.4674 26349.1
 01 09 2016  00 04  -15.5160 26125.5   3424.8   7.4684 26349.0
 01 09 2016  00 05  -15.5153 26125.9   3425.2   7.4691 26349.5
 01 09 2016  00 06  -15.5143 26126.6   3424.6   7.4675 26350.0
 01 09 2016  00 07  -15.5145 26126.5   3425.6   7.4697 26350.2
 01 09 2016  00 08  -15.5147 26126.5   3424.5   7.4675 26350.0
 01 09 2016  00 09  -15.5142 26126.5   3424.4   7.4673 26350.0
 01 09 2016  00 10  -15.5136 26126.5   3424.4   7.4671 26349.9
 01 09 2016  00 11  -15.5138 26126.4   3423.8   7.4659 26349.8
 01 09 2016  00 12  -15.5137 26126.3   3423.8   7.4660 26349.7
 01 09 2016  00 13  -15.5134 26126.2   3423.0   7.4643 26349.5
 01 09 2016  00 14  -15.5135 26125.6   3424.0   7.4666 26349.0
 01 09 2016  00 15  -15.5143 26125.2   3423.6   7.4659 26348.6
 01 09 2016  00 16  -15.5137 26125.1   3424.4   7.4675 26348.6
 01 09 2016  00 17  -15.5127 26125.1   3424.5   7.4678 26348.6
 01 09 2016  00 18  -15.5141 26124.4   3423.8   7.4664 26347.8
 01 09 2016  00 19  -15.5136 26124.4   3422.2   7.4631 26347.6
 01 09 2016  00 20  -15.5140 26123.8   3423.4   7.4659 26347.2
 01 09 2016  00 21  -15.5141 26123.5   3423.4   7.4659 26346.9
 01 09 2016  00 22  -15.5147 26123.2   3423.5   7.4663 26346.6
 01 09 2016  00 23  -15.5146 26123.1   3422.8   7.4648 26346.4
 01 09 2016  00 24  -15.5147 26122.9   3422.7   7.4645 26346.1
 01 09 2016  00 25  -15.5146 26122.7   3423.1   7.4654 26346.1
 01 09 2016  00 26  -15.5145 26122.4   3424.2   7.4679 26345.9
 01 09 2016  00 27  -15.5150 26122.1   3423.6   7.4668 26345.5
 01 09 2016  00 28  -15.5151 26121.8   3423.7   7.4671 26345.3
 01 09 2016  00 29  -15.5145 26121.9   3423.6   7.4668 26345.3
 01 09 2016  00 30  -15.5156 26121.5   3423.1   7.4657 26344.8
 01 09 2016  00 31  -15.5143 26121.5   3423.9   7.4676 26345.0
 01 09 2016  00 32  -15.5146 26121.5   3423.6   7.4669 26344.9
 01 09 2016  00 33  -15.5155 26121.4   3423.0   7.4656 26344.7
 01 09 2016  00 34  -15.5156 26121.3   3423.0   7.4656 26344.6
 01 09 2016  00 35  -15.5158 26121.1   3423.9   7.4675 26344.6
 01 09 2016  00 36  -15.5160 26121.0   3423.6   7.4671 26344.4
 01 09 2016  00 37  -15.5162 26120.8   3423.6   7.4671 26344.2
 01 09 2016  00 38  -15.5168 26120.6   3423.2   7.4664 26344.0
 01 09 2016  00 39  -15.5165 26120.5   3423.5   7.4669 26343.9
 01 09 2016  00 40  -15.5164 26120.7   3423.1   7.4660 26344.0
 01 09 2016  00 41  -15.5162 26120.7   3423.3   7.4664 26344.0
 01 09 2016  00 42  -15.5158 26120.8   3423.3   7.4664 26344.2
 01 09 2016  00 43  -15.5157 26120.7   3423.7   7.4673 26344.2
 01 09 2016  00 44  -15.5159 26121.0   3423.1   7.4660 26344.4
 01 09 2016  00 45  -15.5161 26121.1   3423.4   7.4666 26344.4
 01 09 2016  00 46  -15.5162 26121.0   3423.2   7.4661 26344.4
 01 09 2016  00 47  -15.5164 26120.9   3423.8   7.4675 26344.3
 01 09 2016  00 48  -15.5167 26121.0   3423.0   7.4657 26344.4
 01 09 2016  00 49  -15.5168 26121.2   3424.1   7.4681 26344.6
 01 09 2016  00 50  -15.5172 26121.3   3423.5   7.4668 26344.7
 01 09 2016  00 51  -15.5166 26121.6   3424.4   7.4685 26345.1
 01 09 2016  00 52  -15.5179 26121.6   3423.5   7.4666 26345.0
 01 09 2016  00 53  -15.5171 26122.0   3423.7   7.4669 26345.4
 01 09 2016  00 54  -15.5172 26121.9   3424.3   7.4683 26345.4
 01 09 2016  00 55  -15.5177 26122.0   3423.7   7.4670 26345.4
 01 09 2016  00 56  -15.5179 26121.8   3423.8   7.4673 26345.2
 01 09 2016  00 57  -15.5181 26121.8   3422.8   7.4651 26345.1
 01 09 2016  00 58  -15.5183 26121.6   3423.6   7.4668 26345.0
 01 09 2016  00 59  -15.5184 26121.8   3422.6   7.4647 26345.1
 01 09 2016  01 00  -15.5187 26121.6   3424.1   7.4680 26345.1
 01 09 2016  01 01  -15.5197 26121.3   3423.0   7.4656 26344.7
 01 09 2016  01 02  -15.5189 26121.4   3422.6   7.4647 26344.6
 01 09 2016  01 03  -15.5185 26121.2   3423.1   7.4659 26344.5
 01 09 2016  01 04  -15.5182 26121.1   3423.0   7.4658 26344.4
 01 09 2016  01 05  -15.5193 26120.7   3422.5   7.4647 26344.0
 01 09 2016  01 06  -15.5190 26120.8   3422.6   7.4650 26344.1
 01 09 2016  01 07  -15.5181 26120.7   3423.4   7.4667 26344.1
 01 09 2016  01 08  -15.5188 26120.3   3422.7   7.4653 26343.6
 01 09 2016  01 09  -15.5190 26119.7   3423.2   7.4665 26343.1
 01 09 2016  01 10  -15.5186 26119.3   3423.2   7.4666 26342.6
 01 09 2016  01 11  -15.5176 26119.1   3423.1   7.4665 26342.5
 01 09 2016  01 12  -15.5175 26118.9   3423.9   7.4683 26342.3
 01 09 2016  01 13  -15.5185 26118.7   3423.3   7.4671 26342.1
 01 09 2016  01 14  -15.5176 26118.9   3422.2   7.4646 26342.2
 01 09 2016  01 15  -15.5181 26118.5   3423.6   7.4678 26341.9
 01 09 2016  01 16  -15.5175 26118.5   3423.1   7.4667 26341.8
 01 09 2016  01 17  -15.5172 26118.5   3423.1   7.4666 26341.9
 01 09 2016  01 18  -15.5171 26118.3   3423.2   7.4668 26341.7
 01 09 2016  01 19  -15.5171 26118.3   3423.1   7.4666 26341.7
 01 09 2016  01 20  -15.5169 26118.1   3423.2   7.4669 26341.5
 01 09 2016  01 21  -15.5170 26117.9   3423.0   7.4666 26341.2
 01 09 2016  01 22  -15.5171 26117.8   3422.8   7.4663 26341.1
 01 09 2016  01 23  -15.5173 26117.6   3422.8   7.4662 26340.9
 01 09 2016  01 24  -15.5175 26117.8   3422.8   7.4663 26341.1
 01 09 2016  01 25  -15.5185 26117.8   3423.2   7.4670 26341.2
 01 09 2016  01 26  -15.5190 26117.9   3422.4   7.4654 26341.2
 01 09 2016  01 27  -15.5196 26118.0   3422.9   7.4664 26341.3
 01 09 2016  01 28  -15.5202 26117.9   3422.9   7.4664 26341.2
 01 09 2016  01 29  -15.5205 26118.0   3423.2   7.4670 26341.3
 01 09 2016  01 30  -15.5201 26118.4   3423.1   7.4667 26341.8
 01 09 2016  01 31  -15.5204 26118.4   3423.4   7.4674 26341.8
 01 09 2016  01 32  -15.5204 26118.9   3423.5   7.4674 26342.3
 01 09 2016  01 33  -15.5201 26119.1   3423.3   7.4670 26342.4
 01 09 2016  01 34  -15.5193 26119.0   3423.3   7.4670 26342.3
 01 09 2016  01 35  -15.5190 26118.8   3423.4   7.4671 26342.2
 01 09 2016  01 36  -15.5179 26119.3   3423.5   7.4673 26342.7
 01 09 2016  01 37  -15.5174 26119.2   3423.4   7.4671 26342.6
 01 09 2016  01 38  -15.5168 26119.7   3423.5   7.4672 26343.1
 01 09 2016  01 39  -15.5158 26120.0   3423.8   7.4678 26343.4
 01 09 2016  01 40  -15.5153 26120.1   3423.5   7.4670 26343.5
 01 09 2016  01 41  -15.5150 26120.0   3423.3   7.4667 26343.4
 01 09 2016  01 42  -15.5147 26120.0   3423.0   7.4660 26343.4
 01 09 2016  01 43  -15.5146 26120.3   3423.1   7.4662 26343.7
 01 09 2016  01 44  -15.5142 26121.2   3423.3   7.4662 26344.6
 01 09 2016  01 45  -15.5140 26121.6   3423.7   7.4671 26345.0
 01 09 2016  01 46  -15.5140 26122.3   3423.2   7.4657 26345.6
 01 09 2016  01 47  -15.5138 26123.0   3423.2   7.4655 26346.3
 01 09 2016  01 48  -15.5143 26123.5   3423.5   7.4661 26346.9
 01 09 2016  01 49  -15.5140 26124.4   3424.4   7.4679 26347.9
 01 09 2016  01 50  -15.5142 26125.1   3423.9   7.4665 26348.5
 01 09 2016  01 51  -15.5144 26125.8   3424.2   7.4669 26349.2
 01 09 2016  01 52  -15.5147 26126.2   3424.0   7.4665 26349.6
 01 09 2016  01 53  -15.5138 26126.9   3423.7   7.4655 26350.3
 01 09 2016  01 54  -15.5144 26127.4   3423.3   7.4645 26350.7
 01 09 2016  01 55  -15.5141 26127.9   3423.8   7.4655 26351.3
 01 09 2016  01 56  -15.5144 26128.5   3423.5   7.4647 26351.8
 01 09 2016  01 57  -15.5144 26128.8   3423.0   7.4634 26352.0
 01 09 2016  01 58  -15.5146 26129.1   3423.2   7.4639 26352.4
 01 09 2016  01 59  -15.5150 26129.9   3423.1   7.4634 26353.2
 01 09 2016  02 00  -15.5149 26130.3   3423.0   7.4631 26353.6
 01 09 2016  02 01  -15.5159 26130.3   3422.6   7.4623 26353.5
 01 09 2016  02 02  -15.5165 26130.4   3422.8   7.4626 26353.7
 01 09 2016  02 03  -15.5170 26130.8   3422.1   7.4610 26353.9
 01 09 2016  02 04  -15.5176 26130.9   3422.8   7.4624 26354.1
 01 09 2016  02 05  -15.5176 26131.5   3422.8   7.4624 26354.7
 01 09 2016  02 06  -15.5176 26132.0   3422.9   7.4625 26355.2
 01 09 2016  02 07  -15.5184 26132.3   3423.0   7.4626 26355.5
 01 09 2016  02 08  -15.5190 26132.8   3422.8   7.4620 26356.0
 01 09 2016  02 09  -15.5192 26133.3   3422.5   7.4612 26356.4
 01 09 2016  02 10  -15.5190 26133.9   3423.2   7.4626 26357.2
 01 09 2016  02 11  -15.5188 26134.7   3423.1   7.4621 26358.0
 01 09 2016  02 12  -15.5204 26134.8   3423.0   7.4619 26358.0
 01 09 2016  02 13  -15.5194 26135.2   3423.5   7.4629 26358.4
 01 09 2016  02 14  -15.5191 26135.3   3422.9   7.4616 26358.5
 01 09 2016  02 15  -15.5187 26135.2   3422.9   7.4616 26358.4
 01 09 2016  02 16  -15.5181 26134.9   3422.5   7.4608 26358.0
 01 09 2016  02 17  -15.5171 26134.6   3422.8   7.4614 26357.8
 01 09 2016  02 18  -15.5163 26134.3   3422.1   7.4601 26357.4
 01 09 2016  02 19  -15.5155 26133.8   3421.8   7.4594 26356.9
 01 09 2016  02 20  -15.5138 26133.3   3422.6   7.4613 26356.5
 01 09 2016  02 21  -15.5135 26132.9   3421.3   7.4587 26355.9
 01 09 2016  02 22  -15.5141 26132.1   3421.4   7.4592 26355.2
 01 09 2016  02 23  -15.5143 26131.7   3420.8   7.4579 26354.6
 01 09 2016  02 24  -15.5151 26131.0   3420.6   7.4578 26353.9
 01 09 2016  02 25  -15.5153 26130.3   3420.9   7.4586 26353.3
 01 09 2016  02 26  -15.5150 26129.9   3421.2   7.4593 26353.0
 01 09 2016  02 27  -15.5167 26129.2   3420.2   7.4573 26352.1
 01 09 2016  02 28  -15.5178 26128.5   3419.9   7.4568 26351.4
 01 09 2016  02 29  -15.5180 26128.0   3419.5   7.4561 26350.8
 01 09 2016  02 30  -15.5187 26127.4   3419.9   7.4572 26350.2
 01 09 2016  02 31  -15.5202 26126.7   3419.6   7.4568 26349.6
 01 09 2016  02 32  -15.5209 26126.1   3419.8   7.4574 26349.0
 01 09 2016  02 33  -15.5222 26125.6   3419.5   7.4569 26348.4
 01 09 2016  02 34  -15.5231 26124.8   3419.0   7.4560 26347.5
 01 09 2016  02 35  -15.5239 26123.9   3419.4   7.4571 26346.7
 01 09 2016  02 36  -15.5240 26123.1   3420.4   7.4596 26346.1
 01 09 2016  02 37  -15.5258 26122.4   3419.1   7.4570 26345.2
 01 09 2016  02 38  -15.5267 26121.8   3418.9   7.4567 26344.6
 01 09 2016  02 39  -15.5270 26121.2   3419.6   7.4584 26344.1
 01 09 2016  02 40  -15.5271 26120.4   3419.1   7.4574 26343.2
 01 09 2016  02 41  -15.5286 26119.2   3419.2   7.4580 26342.1
 01 09 2016  02 42  -15.5287 26118.3   3419.3   7.4585 26341.1
 01 09 2016  02 43  -15.5292 26117.2   3419.5   7.4593 26340.1
 01 09 2016  02 44  -15.5292 26116.5   3419.6   7.4598 26339.4
 01 09 2016  02 45  -15.5297 26116.4   3419.4   7.4593 26339.3
 01 09 2016  02 46  -15.5297 26116.5   3420.3   7.4612 26339.5
 01 09 2016  02 47  -15.5300 26116.5   3420.3   7.4612 26339.5
 01 09 2016  02 48  -15.5301 26116.6   3420.9   7.4625 26339.7
 01 09 2016  02 49  -15.5301 26116.9   3421.1   7.4627 26340.0
 01 09 2016  02 50  -15.5301 26117.0   3421.5   7.4635 26340.2
 01 09 2016  02 51  -15.5299 26117.2   3421.5   7.4636 26340.4
 01 09 2016  02 52  -15.5302 26117.3   3421.6   7.4637 26340.4
 01 09 2016  02 53  -15.5300 26117.4   3421.7   7.4639 26340.6
 01 09 2016  02 54  -15.5300 26117.4   3421.8   7.4641 26340.6
 01 09 2016  02 55  -15.5300 26117.4   3421.7   7.4641 26340.6
 01 09 2016  02 56  -15.5303 26117.1   3421.7   7.4639 26340.3
 01 09 2016  02 57  -15.5303 26116.9   3421.8   7.4642 26340.1
 01 09 2016  02 58  -15.5305 26116.7   3421.4   7.4635 26339.8
 01 09 2016  02 59  -15.5310 26116.6   3421.4   7.4636 26339.8
 01 09 2016  03 00  -15.5312 26116.6   3422.3   7.4654 26339.9
 01 09 2016  03 01  -15.5314 26116.9   3421.0   7.4626 26340.0
 01 09 2016  03 02  -15.5307 26117.1   3422.4   7.4655 26340.3
 01 09 2016  03 03  -15.5305 26117.1   3422.4   7.4655 26340.4
 01 09 2016  03 04  -15.5317 26117.0   3421.4   7.4634 26340.1
 01 09 2016  03 05  -15.5304 26117.1   3423.2   7.4673 26340.5
 01 09 2016  03 06  -15.5305 26117.0   3423.5   7.4680 26340.5
 01 09 2016  03 07  -15.5303 26117.3   3422.2   7.4651 26340.5
 01 09 2016  03 08  -15.5293 26117.5   3422.3   7.4653 26340.7
 01 09 2016  03 09  -15.5288 26117.5   3422.7   7.4660 26340.8
 01 09 2016  03 10  -15.5279 26117.4   3423.7   7.4683 26340.9
 01 09 2016  03 11  -15.5276 26117.5   3423.5   7.4677 26340.9
 01 09 2016  03 12  -15.5273 26117.6   3423.3   7.4674 26341.0
 01 09 2016  03 13  -15.5278 26117.4   3423.6   7.4679 26340.8
 01 09 2016  03 14  -15.5272 26117.5   3422.1   7.4647 26340.7
 01 09 2016  03 15  -15.5271 26117.2   3422.8   7.4663 26340.6
 01 09 2016  03 16  -15.5267 26117.3   3422.6   7.4660 26340.6
 01 09 2016  03 17  -15.5271 26117.3   3421.6   7.4637 26340.5
 01 09 2016  03 18  -15.5274 26117.2   3422.8   7.4663 26340.6
 01 09 2016  03 19  -15.5270 26117.2   3422.5   7.4657 26340.5
 01 09 2016  03 20  -15.5275 26117.1   3422.0   7.4646 26340.3
 01 09 2016  03 21  -15.5268 26117.2   3422.1   7.4648 26340.5
 01 09 2016  03 22  -15.5266 26117.2   3422.7   7.4661 26340.6
 01 09 2016  03 23  -15.5262 26117.5   3422.8   7.4662 26340.8
 01 09 2016  03 24  -15.5263 26117.7   3422.7   7.4661 26341.0
 01 09 2016  03 25  -15.5263 26117.8   3423.0   7.4666 26341.2
 01 09 2016  03 26  -15.5260 26118.0   3422.9   7.4663 26341.4
 01 09 2016  03 27  -15.5263 26118.0   3422.6   7.4657 26341.3
 01 09 2016  03 28  -15.5257 26118.1   3422.5   7.4655 26341.4
 01 09 2016  03 29  -15.5256 26118.0   3423.0   7.4667 26341.3
 01 09 2016  03 30  -15.5255 26117.8   3422.8   7.4662 26341.1
 01 09 2016  03 31  -15.5255 26117.6   3422.5   7.4656 26340.9
 01 09 2016  03 32  -15.5255 26117.4   3422.7   7.4661 26340.7
 01 09 2016  03 33  -15.5260 26117.0   3422.4   7.4656 26340.3
 01 09 2016  03 34  -15.5263 26116.8   3421.6   7.4638 26340.0
 01 09 2016  03 35  -15.5261 26116.6   3421.9   7.4646 26339.8
 01 09 2016  03 36  -15.5258 26116.6   3422.1   7.4650 26339.8
 01 09 2016  03 37  -15.5263 26116.7   3421.5   7.4637 26339.9
 01 09 2016  03 38  -15.5271 26116.2   3423.2   7.4675 26339.6
 01 09 2016  03 39  -15.5271 26116.6   3422.5   7.4660 26339.9
 01 09 2016  03 40  -15.5271 26116.9   3423.8   7.4685 26340.3
 01 09 2016  03 41  -15.5278 26117.4   3422.8   7.4662 26340.7
 01 09 2016  03 42  -15.5276 26118.0   3423.6   7.4678 26341.4
 01 09 2016  03 43  -15.5275 26118.9   3423.1   7.4665 26342.2
 01 09 2016  03 44  -15.5268 26119.1   3423.8   7.4679 26342.6
 01 09 2016  03 45  -15.5266 26119.1   3424.0   7.4685 26342.6
 01 09 2016  03 46  -15.5271 26118.9   3423.0   7.4663 26342.2
 01 09 2016  03 47  -15.5272 26118.3   3423.0   7.4665 26341.6
 01 09 2016  03 48  -15.5274 26117.8   3422.3   7.4650 26341.1
 01 09 2016  03 49  -15.5279 26117.7   3422.2   7.4649 26340.9
 01 09 2016  03 50  -15.5279 26117.7   3422.1   7.4647 26341.0
 01 09 2016  03 51  -15.5279 26117.7   3422.4   7.4653 26341.0
 01 09 2016  03 52  -15.5288 26117.5   3422.2   7.4650 26340.8
 01 09 2016  03 53  -15.5294 26117.3   3422.8   7.4663 26340.7
 01 09 2016  03 54  -15.5290 26117.5   3422.8   7.4663 26340.8
 01 09 2016  03 55  -15.5294 26117.3   3422.2   7.4650 26340.5
 01 09 2016  03 56  -15.5297 26117.3   3422.5   7.4656 26340.5
 01 09 2016  03 57  -15.5300 26117.2   3422.6   7.4658 26340.5
 01 09 2016  03 58  -15.5305 26117.1   3422.5   7.4657 26340.4
 01 09 2016  03 59  -15.5310 26117.0   3422.6   7.4661 26340.3
 01 09 2016  04 00  -15.5312 26117.1   3423.2   7.4673 26340.5
 01 09 2016  04 01  -15.5329 26117.1   3423.0   7.4668 26340.5
 01 09 2016  04 02  -15.5326 26117.5   3422.5   7.4657 26340.8
 01 09 2016  04 03  -15.5334 26117.8   3422.5   7.4656 26341.1
 01 09 2016  04 04  -15.5340 26118.1   3422.7   7.4660 26341.5
 01 09 2016  04 05  -15.5344 26118.5   3422.6   7.4656 26341.8
 01 09 2016  04 06  -15.5352 26118.8   3422.2   7.4646 26342.0
 01 09 2016  04 07  -15.5355 26118.8   3422.1   7.4644 26342.1
 01 09 2016  04 08  -15.5350 26118.9   3422.0   7.4641 26342.1
 01 09 2016  04 09  -15.5347 26118.7   3423.3   7.4671 26342.1
 01 09 2016  04 10  -15.5356 26118.4   3423.2   7.4668 26341.7
 01 09 2016  04 11  -15.5360 26118.2   3422.9   7.4663 26341.5
 01 09 2016  04 12  -15.5359 26118.2   3422.6   7.4657 26341.5
 01 09 2016  04 13  -15.5368 26117.9   3422.1   7.4647 26341.1
 01 09 2016  04 14  -15.5361 26117.7   3423.1   7.4669 26341.1
 01 09 2016  04 15  -15.5363 26117.8   3422.7   7.4659 26341.1
 01 09 2016  04 16  -15.5369 26117.8   3422.6   7.4658 26341.1
 01 09 2016  04 17  -15.5361 26118.0   3423.0   7.4667 26341.3
 01 09 2016  04 18  -15.5360 26117.8   3423.2   7.4670 26341.2
 01 09 2016  04 19  -15.5365 26117.4   3423.0   7.4668 26340.8
 01 09 2016  04 20  -15.5351 26117.4   3423.7   7.4683 26340.9
 01 09 2016  04 21  -15.5351 26117.1   3422.4   7.4656 26340.4
 01 09 2016  04 22  -15.5363 26116.4   3421.9   7.4647 26339.6
 01 09 2016  04 23  -15.5351 26116.0   3422.2   7.4654 26339.2
 01 09 2016  04 24  -15.5363 26114.9   3421.4   7.4640 26338.1
 01 09 2016  04 25  -15.5350 26114.3   3422.6   7.4667 26337.6
 01 09 2016  04 26  -15.5348 26113.9   3422.2   7.4659 26337.2
 01 09 2016  04 27  -15.5338 26113.5   3422.1   7.4658 26336.8
 01 09 2016  04 28  -15.5323 26113.3   3422.3   7.4663 26336.6
 01 09 2016  04 29  -15.5318 26113.0   3422.3   7.4665 26336.3
 01 09 2016  04 30  -15.5312 26112.7   3422.6   7.4672 26336.1
 01 09 2016  04 31  -15.5305 26112.7   3422.6   7.4673 26336.1
 01 09 2016  04 32  -15.5306 26112.8   3422.7   7.4673 26336.1
 01 09 2016  04 33  -15.5301 26113.0   3423.1   7.4682 26336.4
 01 09 2016  04 34  -15.5300 26113.1   3423.1   7.4683 26336.5
 01 09 2016  04 35  -15.5298 26113.2   3423.4   7.4687 26336.7
 01 09 2016  04 36  -15.5299 26113.4   3423.3   7.4686 26336.8
 01 09 2016  04 37  -15.5300 26113.5   3423.2   7.4682 26337.0
 01 09 2016  04 38  -15.5305 26113.7   3423.5   7.4689 26337.2
 01 09 2016  04 39  -15.5311 26113.8   3423.6   7.4691 26337.2
 01 09 2016  04 40  -15.5314 26114.0   3423.4   7.4685 26337.4
 01 09 2016  04 41  -15.5326 26114.0   3422.9   7.4675 26337.4
 01 09 2016  04 42  -15.5326 26114.1   3423.9   7.4696 26337.6
 01 09 2016  04 43  -15.5344 26113.8   3422.9   7.4675 26337.2
 01 09 2016  04 44  -15.5344 26113.7   3424.3   7.4707 26337.3
 01 09 2016  04 45  -15.5347 26113.8   3423.6   7.4690 26337.3
 01 09 2016  04 46  -15.5365 26113.3   3423.1   7.4682 26336.7
 01 09 2016  04 47  -15.5371 26112.9   3422.4   7.4666 26336.2
 01 09 2016  04 48  -15.5386 26112.2   3422.9   7.4680 26335.5
 01 09 2016  04 49  -15.5394 26111.6   3422.6   7.4674 26335.0
 01 09 2016  04 50  -15.5398 26111.0   3423.4   7.4693 26334.4
 01 09 2016  04 51  -15.5406 26110.4   3422.6   7.4679 26333.7
 01 09 2016  04 52  -15.5414 26109.8   3422.4   7.4676 26333.2
 01 09 2016  04 53  -15.5415 26109.5   3422.7   7.4683 26332.9
 01 09 2016  04 54  -15.5421 26109.4   3422.8   7.4686 26332.8
 01 09 2016  04 55  -15.5422 26109.4   3423.1   7.4693 26332.9
 01 09 2016  04 56  -15.5420 26109.5   3423.4   7.4698 26333.0
 01 09 2016  04 57  -15.5420 26109.5   3423.6   7.4702 26333.0
 01 09 2016  04 58  -15.5422 26109.4   3423.9   7.4710 26332.9
 01 09 2016  04 59  -15.5422 26109.1   3423.6   7.4704 26332.6
 01 09 2016  05 00  -15.5422 26108.8   3423.6   7.4704 26332.3
 01 09 2016  05 01  -15.5416 26108.7   3424.0   7.4714 26332.2
 01 09 2016  05 02  -15.5417 26108.3   3424.2   7.4718 26331.9
 01 09 2016  05 03  -15.5416 26108.0   3423.5   7.4705 26331.5
 01 09 2016  05 04  -15.5419 26107.3   3423.4   7.4704 26330.8
 01 09 2016  05 05  -15.5421 26106.6   3423.6   7.4712 26330.1
 01 09 2016  05 06  -15.5417 26106.1   3423.3   7.4705 26329.6
 01 09 2016  05 07  -15.5420 26105.6   3423.4   7.4709 26329.1
 01 09 2016  05 08  -15.5421 26105.2   3423.1   7.4705 26328.6
 01 09 2016  05 09  -15.5419 26104.9   3423.2   7.4707 26328.4
