Manaus - AM                    UNIVAP-03  <216> 1 Min. Reported data

 DD MM YYYY  HH MM   D(Deg)  H(nT)   Z(nT)   I(Deg)   F(nT)

 03 08 2016  00 00  -15.4909 26107.6   3441.9   7.5102 26333.5
 03 08 2016  00 01  -15.4906 26107.7   3441.1   7.5085 26333.5
 03 08 2016  00 02  -15.4918 26106.0   3439.7   7.5061 26331.6
 03 08 2016  00 03  -15.4942 26101.4   3437.3   7.5021 26326.8
 03 08 2016  00 04  -15.4958 26097.8   3435.7   7.4998 26323.0
 03 08 2016  00 05  -15.4968 26094.8   3435.3   7.4997 26319.9
 03 08 2016  00 06  -15.4959 26092.7   3435.4   7.5005 26317.9
 03 08 2016  00 07  -15.4956 26092.5   3436.5   7.5029 26317.8
 03 08 2016  00 08  -15.4951 26093.0   3437.5   7.5049 26318.4
 03 08 2016  00 09  -15.4948 26093.6   3438.8   7.5075 26319.2
 03 08 2016  00 10  -15.4942 26094.6   3439.8   7.5094 26320.4
 03 08 2016  00 11  -15.4940 26095.4   3440.3   7.5102 26321.2
 03 08 2016  00 12  -15.4946 26096.1   3440.7   7.5110 26321.9
 03 08 2016  00 13  -15.4951 26096.8   3441.0   7.5114 26322.7
 03 08 2016  00 14  -15.4955 26097.2   3441.0   7.5113 26323.0
 03 08 2016  00 15  -15.4963 26097.1   3440.9   7.5111 26322.9
 03 08 2016  00 16  -15.4973 26097.5   3441.0   7.5113 26323.3
 03 08 2016  00 17  -15.4981 26098.2   3441.4   7.5119 26324.1
 03 08 2016  00 18  -15.4984 26098.3   3441.2   7.5114 26324.1
 03 08 2016  00 19  -15.4991 26098.6   3441.1   7.5112 26324.5
 03 08 2016  00 20  -15.5004 26099.0   3441.2   7.5111 26324.9
 03 08 2016  00 21  -15.5008 26099.8   3441.6   7.5118 26325.7
 03 08 2016  00 22  -15.5007 26100.5   3442.0   7.5126 26326.5
 03 08 2016  00 23  -15.5010 26101.2   3441.9   7.5122 26327.1
 03 08 2016  00 24  -15.5015 26101.4   3442.8   7.5141 26327.4
 03 08 2016  00 25  -15.5019 26101.2   3442.0   7.5124 26327.2
 03 08 2016  00 26  -15.5024 26100.5   3441.7   7.5119 26326.5
 03 08 2016  00 27  -15.5022 26100.0   3441.4   7.5114 26325.9
 03 08 2016  00 28  -15.5034 26098.9   3439.9   7.5084 26324.7
 03 08 2016  00 29  -15.5042 26098.2   3439.6   7.5081 26323.9
 03 08 2016  00 30  -15.5043 26098.0   3440.0   7.5089 26323.7
 03 08 2016  00 31  -15.5037 26097.8   3440.6   7.5103 26323.6
 03 08 2016  00 32  -15.5037 26097.7   3440.8   7.5106 26323.6
 03 08 2016  00 33  -15.5038 26098.0   3440.5   7.5100 26323.8
 03 08 2016  00 34  -15.5033 26098.5   3441.7   7.5124 26324.5
 03 08 2016  00 35  -15.5031 26099.0   3441.4   7.5117 26324.9
 03 08 2016  00 36  -15.5030 26099.4   3441.8   7.5125 26325.3
 03 08 2016  00 37  -15.5034 26100.2   3441.3   7.5111 26326.1
 03 08 2016  00 38  -15.5027 26100.8   3442.0   7.5125 26326.8
 03 08 2016  00 39  -15.5029 26101.3   3442.1   7.5124 26327.2
 03 08 2016  00 40  -15.5036 26101.8   3442.0   7.5122 26327.8
 03 08 2016  00 41  -15.5041 26102.8   3442.2   7.5124 26328.8
 03 08 2016  00 42  -15.5043 26102.8   3441.9   7.5117 26328.8
 03 08 2016  00 43  -15.5054 26102.1   3441.6   7.5111 26328.0
 03 08 2016  00 44  -15.5064 26102.0   3441.2   7.5104 26327.9
 03 08 2016  00 45  -15.5071 26102.6   3441.6   7.5110 26328.6
 03 08 2016  00 46  -15.5068 26103.6   3442.6   7.5130 26329.6
 03 08 2016  00 47  -15.5067 26104.2   3443.0   7.5136 26330.3
 03 08 2016  00 48  -15.5069 26104.6   3442.8   7.5130 26330.6
 03 08 2016  00 49  -15.5074 26104.9   3442.9   7.5133 26330.9
 03 08 2016  00 50  -15.5080 26104.9   3443.4   7.5143 26331.0
 03 08 2016  00 51  -15.5080 26104.3   3442.6   7.5128 26330.3
 03 08 2016  00 52  -15.5079 26105.9   3443.0   7.5130 26332.0
 03 08 2016  00 53  -15.5064 26108.4   3444.7   7.5162 26334.7
 03 08 2016  00 54  -15.5052 26109.9   3445.9   7.5181 26336.3
 03 08 2016  00 55  -15.5052 26111.3   3445.1   7.5162 26337.6
 03 08 2016  00 56  -15.5055 26112.6   3445.3   7.5162 26338.9
 03 08 2016  00 57  -15.5054 26114.3   3445.3   7.5158 26340.6
 03 08 2016  00 58  -15.5049 26115.7   3446.3   7.5174 26342.1
 03 08 2016  00 59  -15.5041 26117.4   3447.0   7.5185 26343.9
 03 08 2016  01 00  -15.5033 26119.8   3446.8   7.5174 26346.3
 03 08 2016  01 01  -15.5028 26120.4   3446.4   7.5163 26346.8
 03 08 2016  01 02  -15.5022 26120.9   3446.2   7.5158 26347.3
 03 08 2016  01 03  -15.5008 26121.4   3445.9   7.5151 26347.7
 03 08 2016  01 04  -15.5007 26121.7   3445.3   7.5135 26347.9
 03 08 2016  01 05  -15.4999 26122.0   3445.2   7.5134 26348.3
 03 08 2016  01 06  -15.4992 26121.9   3444.6   7.5121 26348.0
 03 08 2016  01 07  -15.4997 26121.3   3443.2   7.5092 26347.3
 03 08 2016  01 08  -15.4990 26122.5   3444.1   7.5109 26348.6
 03 08 2016  01 09  -15.4978 26122.9   3444.3   7.5112 26349.0
 03 08 2016  01 10  -15.4978 26122.3   3443.9   7.5103 26348.4
 03 08 2016  01 11  -15.4970 26123.7   3444.7   7.5117 26349.8
 03 08 2016  01 12  -15.4972 26123.9   3443.9   7.5100 26349.9
 03 08 2016  01 13  -15.4969 26124.6   3444.0   7.5100 26350.6
 03 08 2016  01 14  -15.4954 26125.4   3444.4   7.5107 26351.4
 03 08 2016  01 15  -15.4948 26125.9   3443.6   7.5087 26351.9
 03 08 2016  01 16  -15.4937 26127.5   3444.4   7.5100 26353.6
 03 08 2016  01 17  -15.4924 26129.1   3444.9   7.5107 26355.3
 03 08 2016  01 18  -15.4915 26130.0   3444.5   7.5095 26356.1
 03 08 2016  01 19  -15.4902 26132.6   3445.7   7.5114 26358.8
 03 08 2016  01 20  -15.4885 26136.8   3447.4   7.5139 26363.2
 03 08 2016  01 21  -15.4870 26140.1   3448.3   7.5149 26366.5
 03 08 2016  01 22  -15.4853 26143.3   3448.6   7.5146 26369.7
 03 08 2016  01 23  -15.4846 26144.4   3448.1   7.5132 26370.8
 03 08 2016  01 24  -15.4842 26143.4   3446.2   7.5093 26369.6
 03 08 2016  01 25  -15.4819 26144.6   3446.0   7.5085 26370.8
 03 08 2016  01 26  -15.4797 26144.8   3445.2   7.5068 26370.8
 03 08 2016  01 27  -15.4794 26143.8   3444.1   7.5047 26369.6
 03 08 2016  01 28  -15.4784 26142.2   3443.1   7.5030 26368.0
 03 08 2016  01 29  -15.4785 26140.6   3441.1   7.4992 26366.1
 03 08 2016  01 30  -15.4776 26140.3   3440.9   7.4988 26365.7
 03 08 2016  01 31  -15.4773 26141.4   3441.6   7.5001 26367.0
 03 08 2016  01 32  -15.4769 26142.3   3442.2   7.5011 26367.9
 03 08 2016  01 33  -15.4778 26142.5   3441.6   7.4997 26368.0
 03 08 2016  01 34  -15.4790 26141.5   3440.6   7.4979 26366.9
 03 08 2016  01 35  -15.4815 26139.2   3439.2   7.4956 26364.4
 03 08 2016  01 36  -15.4831 26138.3   3438.9   7.4951 26363.5
 03 08 2016  01 37  -15.4842 26138.4   3439.4   7.4962 26363.7
 03 08 2016  01 38  -15.4860 26138.4   3439.3   7.4960 26363.7
 03 08 2016  01 39  -15.4875 26138.6   3439.5   7.4963 26363.9
 03 08 2016  01 40  -15.4888 26139.4   3440.1   7.4974 26364.8
 03 08 2016  01 41  -15.4904 26139.8   3440.3   7.4977 26365.2
 03 08 2016  01 42  -15.4915 26140.7   3440.8   7.4984 26366.2
 03 08 2016  01 43  -15.4925 26141.6   3441.0   7.4987 26367.1
 03 08 2016  01 44  -15.4937 26142.0   3440.8   7.4982 26367.5
 03 08 2016  01 45  -15.4952 26142.5   3440.8   7.4981 26367.9
 03 08 2016  01 46  -15.4965 26142.9   3441.0   7.4983 26368.4
 03 08 2016  01 47  -15.4977 26143.4   3441.5   7.4992 26369.0
 03 08 2016  01 48  -15.4993 26143.8   3440.7   7.4974 26369.3
 03 08 2016  01 49  -15.5001 26144.1   3440.9   7.4977 26369.6
 03 08 2016  01 50  -15.5011 26145.0   3441.2   7.4982 26370.5
 03 08 2016  01 51  -15.5011 26147.5   3442.3   7.4999 26373.1
 03 08 2016  01 52  -15.5007 26152.6   3445.2   7.5046 26378.6
 03 08 2016  01 53  -15.5008 26155.2   3445.6   7.5049 26381.1
 03 08 2016  01 54  -15.5025 26154.5   3444.1   7.5016 26380.3
 03 08 2016  01 55  -15.5049 26151.1   3441.2   7.4964 26376.5
 03 08 2016  01 56  -15.5073 26148.2   3438.9   7.4924 26373.4
 03 08 2016  01 57  -15.5089 26147.0   3438.3   7.4913 26372.1
 03 08 2016  01 58  -15.5098 26146.7   3438.7   7.4923 26371.9
 03 08 2016  01 59  -15.5099 26147.3   3439.5   7.4938 26372.6
 03 08 2016  02 00  -15.5099 26148.0   3439.9   7.4944 26373.3
 03 08 2016  02 01  -15.5094 26149.0   3440.7   7.4959 26374.3
 03 08 2016  02 02  -15.5087 26150.7   3441.4   7.4970 26376.2
 03 08 2016  02 03  -15.5085 26151.8   3442.2   7.4983 26377.3
 03 08 2016  02 04  -15.5069 26152.8   3442.4   7.4986 26378.4
 03 08 2016  02 05  -15.5073 26153.2   3441.6   7.4968 26378.7
 03 08 2016  02 06  -15.5079 26153.6   3441.9   7.4972 26379.2
 03 08 2016  02 07  -15.5092 26152.8   3440.7   7.4948 26378.1
 03 08 2016  02 08  -15.5105 26151.4   3439.6   7.4928 26376.6
 03 08 2016  02 09  -15.5098 26152.6   3440.4   7.4942 26377.9
 03 08 2016  02 10  -15.5071 26160.1   3444.8   7.5016 26385.9
 03 08 2016  02 11  -15.5069 26161.3   3444.7   7.5011 26387.1
 03 08 2016  02 12  -15.5084 26158.8   3441.9   7.4958 26384.3
 03 08 2016  02 13  -15.5094 26156.9   3440.4   7.4930 26382.2
 03 08 2016  02 14  -15.5094 26156.1   3439.7   7.4917 26381.3
 03 08 2016  02 15  -15.5091 26156.0   3439.6   7.4916 26381.2
 03 08 2016  02 16  -15.5089 26156.4   3440.0   7.4924 26381.7
 03 08 2016  02 17  -15.5090 26156.2   3439.7   7.4918 26381.4
 03 08 2016  02 18  -15.5086 26155.8   3439.6   7.4916 26381.0
 03 08 2016  02 19  -15.5083 26155.3   3439.2   7.4909 26380.5
 03 08 2016  02 20  -15.5080 26154.3   3438.9   7.4905 26379.4
 03 08 2016  02 21  -15.5076 26152.4   3437.8   7.4887 26377.4
 03 08 2016  02 22  -15.5071 26151.0   3437.5   7.4885 26375.9
 03 08 2016  02 23  -15.5061 26150.0   3437.8   7.4893 26375.0
 03 08 2016  02 24  -15.5050 26149.5   3438.0   7.4900 26374.6
 03 08 2016  02 25  -15.5044 26149.3   3437.8   7.4896 26374.3
 03 08 2016  02 26  -15.5034 26149.0   3437.7   7.4896 26374.0
 03 08 2016  02 27  -15.5029 26149.0   3438.1   7.4904 26374.1
 03 08 2016  02 28  -15.5027 26149.0   3438.6   7.4914 26374.1
 03 08 2016  02 29  -15.5026 26148.9   3438.3   7.4908 26373.9
 03 08 2016  02 30  -15.5027 26148.8   3438.4   7.4910 26373.9
 03 08 2016  02 31  -15.5031 26148.1   3437.8   7.4899 26373.1
 03 08 2016  02 32  -15.5038 26147.0   3437.1   7.4888 26371.9
 03 08 2016  02 33  -15.5049 26145.8   3437.0   7.4889 26370.8
 03 08 2016  02 34  -15.5052 26145.2   3436.3   7.4875 26370.0
 03 08 2016  02 35  -15.5057 26145.2   3437.4   7.4900 26370.2
 03 08 2016  02 36  -15.5055 26145.5   3438.2   7.4916 26370.6
 03 08 2016  02 37  -15.5054 26145.7   3438.0   7.4911 26370.7
 03 08 2016  02 38  -15.5047 26145.7   3438.7   7.4925 26370.8
 03 08 2016  02 39  -15.5049 26145.4   3438.5   7.4923 26370.5
 03 08 2016  02 40  -15.5048 26145.6   3438.7   7.4927 26370.7
 03 08 2016  02 41  -15.5053 26144.8   3438.2   7.4917 26369.9
 03 08 2016  02 42  -15.5059 26144.3   3437.7   7.4908 26369.3
 03 08 2016  02 43  -15.5063 26144.9   3438.4   7.4923 26370.0
 03 08 2016  02 44  -15.5073 26145.9   3439.1   7.4934 26371.2
 03 08 2016  02 45  -15.5084 26146.5   3439.5   7.4940 26371.8
 03 08 2016  02 46  -15.5096 26146.9   3439.3   7.4936 26372.1
 03 08 2016  02 47  -15.5106 26146.9   3439.5   7.4939 26372.2
 03 08 2016  02 48  -15.5113 26147.2   3439.7   7.4942 26372.5
 03 08 2016  02 49  -15.5117 26147.7   3440.2   7.4953 26373.0
 03 08 2016  02 50  -15.5113 26148.1   3439.6   7.4937 26373.4
 03 08 2016  02 51  -15.5114 26147.4   3438.9   7.4925 26372.6
 03 08 2016  02 52  -15.5110 26146.9   3439.3   7.4934 26372.1
 03 08 2016  02 53  -15.5099 26147.8   3440.3   7.4954 26373.2
 03 08 2016  02 54  -15.5085 26149.3   3440.5   7.4953 26374.7
 03 08 2016  02 55  -15.5086 26150.1   3440.4   7.4951 26375.4
 03 08 2016  02 56  -15.5083 26150.6   3440.2   7.4945 26375.9
 03 08 2016  02 57  -15.5083 26151.3   3441.2   7.4965 26376.7
 03 08 2016  02 58  -15.5087 26151.6   3441.6   7.4971 26377.0
 03 08 2016  02 59  -15.5101 26151.0   3439.9   7.4937 26376.3
 03 08 2016  03 00  -15.5114 26150.0   3440.1   7.4943 26375.3
 03 08 2016  03 01  -15.5126 26149.5   3439.3   7.4927 26374.7
 03 08 2016  03 02  -15.5133 26149.5   3439.9   7.4941 26374.8
 03 08 2016  03 03  -15.5135 26149.3   3439.5   7.4932 26374.5
 03 08 2016  03 04  -15.5135 26148.6   3439.2   7.4927 26373.8
 03 08 2016  03 05  -15.5132 26148.7   3439.3   7.4930 26373.9
 03 08 2016  03 06  -15.5130 26149.0   3439.6   7.4937 26374.2
 03 08 2016  03 07  -15.5128 26149.0   3439.8   7.4940 26374.3
 03 08 2016  03 08  -15.5128 26149.0   3439.9   7.4942 26374.3
 03 08 2016  03 09  -15.5128 26148.9   3439.4   7.4932 26374.2
 03 08 2016  03 10  -15.5126 26148.6   3439.4   7.4933 26373.9
 03 08 2016  03 11  -15.5122 26148.7   3439.5   7.4935 26373.9
 03 08 2016  03 12  -15.5123 26149.0   3439.8   7.4940 26374.3
 03 08 2016  03 13  -15.5125 26150.3   3439.9   7.4939 26375.6
 03 08 2016  03 14  -15.5131 26150.6   3440.2   7.4945 26375.9
 03 08 2016  03 15  -15.5136 26150.0   3440.3   7.4948 26375.4
 03 08 2016  03 16  -15.5139 26149.6   3440.3   7.4948 26375.0
 03 08 2016  03 17  -15.5147 26150.0   3440.6   7.4954 26375.4
 03 08 2016  03 18  -15.5142 26150.6   3440.8   7.4957 26376.0
 03 08 2016  03 19  -15.5139 26150.2   3440.7   7.4956 26375.6
 03 08 2016  03 20  -15.5142 26149.6   3440.6   7.4955 26375.0
 03 08 2016  03 21  -15.5148 26149.3   3439.3   7.4928 26374.5
 03 08 2016  03 22  -15.5153 26149.4   3439.0   7.4921 26374.6
 03 08 2016  03 23  -15.5152 26149.1   3439.9   7.4943 26374.4
 03 08 2016  03 24  -15.5153 26149.1   3439.1   7.4924 26374.3
 03 08 2016  03 25  -15.5149 26149.6   3439.8   7.4939 26374.9
 03 08 2016  03 26  -15.5146 26150.2   3440.5   7.4951 26375.6
 03 08 2016  03 27  -15.5146 26150.4   3441.0   7.4963 26375.8
 03 08 2016  03 28  -15.5150 26150.4   3440.6   7.4954 26375.7
 03 08 2016  03 29  -15.5163 26150.6   3440.8   7.4958 26376.0
 03 08 2016  03 30  -15.5167 26150.7   3440.7   7.4955 26376.1
 03 08 2016  03 31  -15.5177 26150.9   3440.7   7.4953 26376.2
 03 08 2016  03 32  -15.5177 26150.6   3440.1   7.4941 26375.9
 03 08 2016  03 33  -15.5176 26150.3   3440.4   7.4948 26375.7
 03 08 2016  03 34  -15.5174 26149.9   3439.7   7.4936 26375.1
 03 08 2016  03 35  -15.5173 26149.6   3439.7   7.4936 26374.8
 03 08 2016  03 36  -15.5168 26150.2   3440.7   7.4956 26375.5
 03 08 2016  03 37  -15.5160 26150.9   3441.1   7.4964 26376.3
 03 08 2016  03 38  -15.5151 26151.1   3441.4   7.4969 26376.6
 03 08 2016  03 39  -15.5141 26151.5   3440.8   7.4954 26376.9
 03 08 2016  03 40  -15.5138 26151.9   3440.6   7.4950 26377.2
 03 08 2016  03 41  -15.5140 26152.2   3441.4   7.4966 26377.7
 03 08 2016  03 42  -15.5143 26153.2   3441.1   7.4956 26378.6
 03 08 2016  03 43  -15.5136 26154.1   3442.5   7.4983 26379.7
 03 08 2016  03 44  -15.5143 26153.5   3441.1   7.4955 26378.9
 03 08 2016  03 45  -15.5148 26153.8   3440.3   7.4938 26379.1
 03 08 2016  03 46  -15.5140 26154.2   3440.4   7.4939 26379.5
 03 08 2016  03 47  -15.5147 26153.4   3440.0   7.4932 26378.6
 03 08 2016  03 48  -15.5157 26151.7   3438.7   7.4909 26376.8
 03 08 2016  03 49  -15.5152 26151.2   3439.2   7.4920 26376.4
 03 08 2016  03 50  -15.5145 26152.7   3440.0   7.4934 26378.0
 03 08 2016  03 51  -15.5160 26151.3   3439.9   7.4935 26376.6
 03 08 2016  03 52  -15.5183 26146.3   3436.0   7.4866 26371.2
 03 08 2016  03 53  -15.5192 26142.8   3434.3   7.4839 26367.4
 03 08 2016  03 54  -15.5192 26141.3   3435.1   7.4862 26366.1
 03 08 2016  03 55  -15.5181 26141.4   3436.2   7.4885 26366.2
 03 08 2016  03 56  -15.5174 26141.5   3436.5   7.4890 26366.4
 03 08 2016  03 57  -15.5168 26141.8   3437.3   7.4907 26366.8
 03 08 2016  03 58  -15.5155 26142.4   3438.3   7.4925 26367.5
 03 08 2016  03 59  -15.5146 26142.9   3439.4   7.4949 26368.2
 03 08 2016  04 00  -15.5138 26143.1   3439.2   7.4945 26368.3
 03 08 2016  04 01  -15.5136 26143.1   3439.7   7.4955 26368.4
 03 08 2016  04 02  -15.5133 26143.2   3439.5   7.4949 26368.5
 03 08 2016  04 03  -15.5123 26143.3   3439.4   7.4947 26368.6
 03 08 2016  04 04  -15.5118 26143.1   3438.5   7.4929 26368.3
 03 08 2016  04 05  -15.5108 26143.0   3439.3   7.4947 26368.3
 03 08 2016  04 06  -15.5101 26143.1   3438.8   7.4934 26368.3
 03 08 2016  04 07  -15.5096 26143.2   3439.8   7.4957 26368.5
 03 08 2016  04 08  -15.5095 26143.4   3439.9   7.4959 26368.7
 03 08 2016  04 09  -15.5097 26142.9   3439.6   7.4953 26368.2
 03 08 2016  04 10  -15.5092 26142.3   3439.4   7.4950 26367.6
 03 08 2016  04 11  -15.5089 26142.3   3438.9   7.4939 26367.5
 03 08 2016  04 12  -15.5085 26142.3   3439.4   7.4950 26367.6
 03 08 2016  04 13  -15.5081 26142.3   3439.5   7.4953 26367.6
 03 08 2016  04 14  -15.5077 26142.2   3439.6   7.4955 26367.5
 03 08 2016  04 15  -15.5074 26142.4   3439.3   7.4949 26367.7
 03 08 2016  04 16  -15.5076 26143.0   3440.1   7.4963 26368.4
 03 08 2016  04 17  -15.5079 26143.5   3440.3   7.4966 26368.9
 03 08 2016  04 18  -15.5079 26143.7   3440.0   7.4959 26369.1
 03 08 2016  04 19  -15.5081 26144.1   3440.0   7.4959 26369.4
 03 08 2016  04 20  -15.5086 26144.5   3440.5   7.4969 26369.9
 03 08 2016  04 21  -15.5091 26145.0   3440.3   7.4963 26370.3
 03 08 2016  04 22  -15.5090 26145.5   3440.5   7.4966 26370.9
 03 08 2016  04 23  -15.5088 26146.2   3441.0   7.4974 26371.6
 03 08 2016  04 24  -15.5085 26146.7   3441.0   7.4972 26372.1
 03 08 2016  04 25  -15.5085 26146.9   3441.2   7.4977 26372.3
 03 08 2016  04 26  -15.5084 26147.0   3441.0   7.4972 26372.5
 03 08 2016  04 27  -15.5082 26147.3   3440.9   7.4969 26372.7
 03 08 2016  04 28  -15.5075 26147.5   3441.1   7.4972 26373.0
 03 08 2016  04 29  -15.5067 26148.0   3441.3   7.4975 26373.4
 03 08 2016  04 30  -15.5060 26148.9   3441.4   7.4975 26374.4
 03 08 2016  04 31  -15.5057 26149.5   3441.3   7.4970 26374.9
 03 08 2016  04 32  -15.5053 26149.7   3441.5   7.4974 26375.2
 03 08 2016  04 33  -15.5052 26150.0   3441.2   7.4968 26375.5
 03 08 2016  04 34  -15.5055 26150.2   3441.2   7.4967 26375.7
 03 08 2016  04 35  -15.5061 26150.2   3440.7   7.4955 26375.6
 03 08 2016  04 36  -15.5068 26150.0   3440.7   7.4956 26375.3
 03 08 2016  04 37  -15.5072 26149.6   3440.6   7.4956 26375.0
 03 08 2016  04 38  -15.5071 26149.0   3440.2   7.4949 26374.3
 03 08 2016  04 39  -15.5069 26148.8   3439.7   7.4938 26374.0
 03 08 2016  04 40  -15.5068 26148.8   3440.1   7.4947 26374.1
 03 08 2016  04 41  -15.5068 26148.9   3439.9   7.4943 26374.2
 03 08 2016  04 42  -15.5072 26148.9   3440.0   7.4946 26374.2
 03 08 2016  04 43  -15.5077 26148.9   3440.1   7.4946 26374.2
 03 08 2016  04 44  -15.5087 26148.1   3439.7   7.4941 26373.4
 03 08 2016  04 45  -15.5097 26146.4   3437.9   7.4906 26371.4
 03 08 2016  04 46  -15.5099 26145.0   3437.8   7.4908 26370.0
 03 08 2016  04 47  -15.5093 26144.5   3438.3   7.4920 26369.6
 03 08 2016  04 48  -15.5094 26144.3   3438.6   7.4927 26369.4
 03 08 2016  04 49  -15.5098 26143.9   3438.3   7.4921 26369.0
 03 08 2016  04 50  -15.5093 26143.8   3438.5   7.4927 26369.0
 03 08 2016  04 51  -15.5086 26144.2   3439.1   7.4939 26369.4
 03 08 2016  04 52  -15.5086 26144.7   3439.5   7.4946 26369.9
 03 08 2016  04 53  -15.5096 26145.0   3439.8   7.4952 26370.3
 03 08 2016  04 54  -15.5105 26145.7   3440.3   7.4960 26371.1
 03 08 2016  04 55  -15.5119 26147.2   3440.8   7.4967 26372.7
 03 08 2016  04 56  -15.5134 26149.2   3441.6   7.4979 26374.7
 03 08 2016  04 57  -15.5153 26150.3   3442.3   7.4990 26375.9
 03 08 2016  04 58  -15.5178 26150.3   3442.1   7.4985 26375.9
 03 08 2016  04 59  -15.5191 26150.5   3441.6   7.4974 26376.0
 03 08 2016  05 00  -15.5202 26151.3   3442.0   7.4981 26376.8
 03 08 2016  05 01  -15.5219 26151.1   3441.9   7.4979 26376.6
 03 08 2016  05 02  -15.5225 26150.4   3441.5   7.4973 26375.9
 03 08 2016  05 03  -15.5235 26149.3   3440.7   7.4958 26374.7
 03 08 2016  05 04  -15.5243 26148.4   3440.5   7.4957 26373.8
 03 08 2016  05 05  -15.5247 26147.5   3440.0   7.4949 26372.8
 03 08 2016  05 06  -15.5249 26146.5   3439.8   7.4948 26371.8
 03 08 2016  05 07  -15.5258 26145.7   3439.8   7.4950 26371.0
 03 08 2016  05 08  -15.5266 26145.2   3439.6   7.4946 26370.5
 03 08 2016  05 09  -15.5275 26144.4   3439.6   7.4950 26369.7
