Manaus - AM                    UNIVAP-03  <282> 1 Min. Reported data

 DD MM YYYY  HH MM   D(Deg)  H(nT)   Z(nT)   I(Deg)   F(nT)

 08 10 2016  00 00  -15.5109 26132.4   3399.6   7.4121 26352.6
 08 10 2016  00 01  -15.5114 26132.2   3398.9   7.4105 26352.3
 08 10 2016  00 02  -15.5112 26132.3   3398.3   7.4093 26352.3
 08 10 2016  00 03  -15.5099 26132.7   3397.6   7.4077 26352.7
 08 10 2016  00 04  -15.5098 26132.5   3399.1   7.4109 26352.6
 08 10 2016  00 05  -15.5102 26132.6   3398.3   7.4093 26352.6
 08 10 2016  00 06  -15.5094 26132.7   3398.6   7.4099 26352.8
 08 10 2016  00 07  -15.5091 26132.7   3399.1   7.4110 26352.8
 08 10 2016  00 08  -15.5101 26132.5   3399.3   7.4113 26352.7
 08 10 2016  00 09  -15.5096 26132.8   3398.5   7.4096 26352.9
 08 10 2016  00 10  -15.5095 26132.6   3398.9   7.4105 26352.7
 08 10 2016  00 11  -15.5090 26132.7   3398.3   7.4092 26352.8
 08 10 2016  00 12  -15.5091 26132.5   3400.3   7.4134 26352.8
 08 10 2016  00 13  -15.5092 26133.0   3398.2   7.4089 26353.1
 08 10 2016  00 14  -15.5092 26133.1   3399.7   7.4120 26353.3
 08 10 2016  00 15  -15.5099 26133.2   3399.6   7.4119 26353.4
 08 10 2016  00 16  -15.5089 26133.5   3400.9   7.4145 26353.8
 08 10 2016  00 17  -15.5088 26133.7   3400.6   7.4140 26354.0
 08 10 2016  00 18  -15.5080 26134.1   3399.4   7.4111 26354.3
 08 10 2016  00 19  -15.5093 26133.7   3400.6   7.4139 26354.1
 08 10 2016  00 20  -15.5096 26134.1   3398.9   7.4102 26354.2
 08 10 2016  00 21  -15.5094 26134.0   3398.6   7.4094 26354.1
 08 10 2016  00 22  -15.5089 26134.3   3398.1   7.4083 26354.3
 08 10 2016  00 23  -15.5096 26134.5   3397.4   7.4067 26354.4
 08 10 2016  00 24  -15.5094 26134.5   3398.5   7.4092 26354.5
 08 10 2016  00 25  -15.5090 26134.2   3399.6   7.4115 26354.4
 08 10 2016  00 26  -15.5078 26134.7   3399.4   7.4111 26354.9
 08 10 2016  00 27  -15.5087 26134.7   3398.9   7.4099 26354.8
 08 10 2016  00 28  -15.5085 26134.9   3399.5   7.4112 26355.1
 08 10 2016  00 29  -15.5095 26134.5   3398.5   7.4091 26354.6
 08 10 2016  00 30  -15.5084 26134.6   3399.9   7.4120 26354.8
 08 10 2016  00 31  -15.5090 26134.6   3398.4   7.4089 26354.6
 08 10 2016  00 32  -15.5088 26134.8   3398.8   7.4096 26354.9
 08 10 2016  00 33  -15.5082 26135.0   3399.5   7.4111 26355.1
 08 10 2016  00 34  -15.5084 26135.0   3399.2   7.4105 26355.1
 08 10 2016  00 35  -15.5090 26134.6   3400.4   7.4132 26354.9
 08 10 2016  00 36  -15.5094 26134.8   3398.6   7.4092 26354.8
 08 10 2016  00 37  -15.5079 26135.2   3398.5   7.4089 26355.3
 08 10 2016  00 38  -15.5074 26135.2   3399.5   7.4111 26355.4
 08 10 2016  00 39  -15.5080 26135.3   3399.6   7.4112 26355.5
 08 10 2016  00 40  -15.5076 26135.5   3400.3   7.4126 26355.8
 08 10 2016  00 41  -15.5082 26135.4   3398.7   7.4092 26355.4
 08 10 2016  00 42  -15.5093 26134.9   3399.0   7.4101 26355.0
 08 10 2016  00 43  -15.5098 26134.6   3398.6   7.4092 26354.6
 08 10 2016  00 44  -15.5096 26134.2   3398.2   7.4085 26354.2
 08 10 2016  00 45  -15.5093 26134.1   3399.2   7.4107 26354.3
 08 10 2016  00 46  -15.5093 26134.4   3398.8   7.4098 26354.5
 08 10 2016  00 47  -15.5099 26134.4   3398.8   7.4098 26354.5
 08 10 2016  00 48  -15.5096 26134.9   3399.0   7.4100 26355.0
 08 10 2016  00 49  -15.5100 26135.0   3399.0   7.4100 26355.1
 08 10 2016  00 50  -15.5110 26134.5   3399.4   7.4111 26354.7
 08 10 2016  00 51  -15.5107 26134.3   3398.8   7.4097 26354.4
 08 10 2016  00 52  -15.5112 26133.7   3399.3   7.4110 26353.8
 08 10 2016  00 53  -15.5104 26134.0   3398.1   7.4084 26354.0
 08 10 2016  00 54  -15.5098 26134.1   3398.1   7.4082 26354.1
 08 10 2016  00 55  -15.5105 26133.4   3398.6   7.4096 26353.5
 08 10 2016  00 56  -15.5094 26133.6   3397.7   7.4077 26353.5
 08 10 2016  00 57  -15.5089 26133.3   3400.9   7.4147 26353.7
 08 10 2016  00 58  -15.5099 26133.4   3398.3   7.4089 26353.5
 08 10 2016  00 59  -15.5098 26133.2   3399.5   7.4115 26353.4
 08 10 2016  01 00  -15.5107 26132.8   3398.7   7.4100 26352.9
 08 10 2016  01 01  -15.5093 26132.6   3399.5   7.4117 26352.8
 08 10 2016  01 02  -15.5089 26132.8   3398.7   7.4099 26352.9
 08 10 2016  01 03  -15.5091 26132.4   3398.7   7.4101 26352.5
 08 10 2016  01 04  -15.5089 26131.9   3400.4   7.4138 26352.2
 08 10 2016  01 05  -15.5091 26131.8   3398.7   7.4103 26351.9
 08 10 2016  01 06  -15.5090 26131.5   3397.6   7.4079 26351.4
 08 10 2016  01 07  -15.5079 26131.1   3399.2   7.4117 26351.3
 08 10 2016  01 08  -15.5099 26130.5   3397.8   7.4086 26350.5
 08 10 2016  01 09  -15.5103 26130.0   3398.8   7.4109 26350.1
 08 10 2016  01 10  -15.5099 26129.5   3399.6   7.4128 26349.8
 08 10 2016  01 11  -15.5079 26129.7   3399.9   7.4134 26350.0
 08 10 2016  01 12  -15.5087 26129.4   3398.8   7.4113 26349.5
 08 10 2016  01 13  -15.5096 26129.1   3398.9   7.4114 26349.2
 08 10 2016  01 14  -15.5092 26129.2   3397.8   7.4091 26349.2
 08 10 2016  01 15  -15.5093 26128.7   3398.8   7.4114 26348.8
 08 10 2016  01 16  -15.5097 26128.4   3398.6   7.4111 26348.5
 08 10 2016  01 17  -15.5095 26128.0   3398.7   7.4113 26348.1
 08 10 2016  01 18  -15.5097 26127.3   3398.5   7.4110 26347.4
 08 10 2016  01 19  -15.5101 26126.6   3398.3   7.4108 26346.7
 08 10 2016  01 20  -15.5100 26126.2   3397.9   7.4101 26346.2
 08 10 2016  01 21  -15.5103 26125.6   3398.3   7.4112 26345.7
 08 10 2016  01 22  -15.5104 26125.1   3398.0   7.4106 26345.1
 08 10 2016  01 23  -15.5106 26124.5   3398.0   7.4108 26344.6
 08 10 2016  01 24  -15.5108 26124.0   3398.4   7.4118 26344.1
 08 10 2016  01 25  -15.5120 26123.7   3397.2   7.4094 26343.6
 08 10 2016  01 26  -15.5119 26123.6   3397.2   7.4094 26343.6
 08 10 2016  01 27  -15.5122 26123.2   3398.1   7.4114 26343.3
 08 10 2016  01 28  -15.5124 26122.9   3398.6   7.4125 26343.0
 08 10 2016  01 29  -15.5123 26122.9   3398.1   7.4114 26342.9
 08 10 2016  01 30  -15.5125 26122.6   3398.6   7.4126 26342.8
 08 10 2016  01 31  -15.5122 26122.5   3399.8   7.4152 26342.8
 08 10 2016  01 32  -15.5132 26122.2   3399.2   7.4140 26342.5
 08 10 2016  01 33  -15.5137 26122.4   3397.0   7.4094 26342.4
 08 10 2016  01 34  -15.5143 26121.9   3398.0   7.4115 26342.0
 08 10 2016  01 35  -15.5144 26121.8   3397.8   7.4111 26341.8
 08 10 2016  01 36  -15.5135 26121.7   3399.2   7.4141 26341.9
 08 10 2016  01 37  -15.5134 26122.0   3397.3   7.4099 26342.0
 08 10 2016  01 38  -15.5150 26121.7   3397.6   7.4108 26341.7
 08 10 2016  01 39  -15.5140 26121.8   3400.1   7.4161 26342.1
 08 10 2016  01 40  -15.5133 26122.3   3398.6   7.4127 26342.5
 08 10 2016  01 41  -15.5134 26122.4   3398.3   7.4121 26342.5
 08 10 2016  01 42  -15.5142 26122.3   3397.6   7.4107 26342.3
 08 10 2016  01 43  -15.5132 26122.4   3399.2   7.4141 26342.6
 08 10 2016  01 44  -15.5120 26122.7   3399.6   7.4147 26343.0
 08 10 2016  01 45  -15.5128 26122.3   3398.9   7.4134 26342.5
 08 10 2016  01 46  -15.5120 26122.1   3399.2   7.4141 26342.3
 08 10 2016  01 47  -15.5121 26121.9   3398.2   7.4119 26342.0
 08 10 2016  01 48  -15.5117 26121.8   3398.7   7.4130 26342.0
 08 10 2016  01 49  -15.5117 26122.4   3398.9   7.4135 26342.6
 08 10 2016  01 50  -15.5112 26123.0   3399.4   7.4144 26343.2
 08 10 2016  01 51  -15.5115 26123.1   3399.2   7.4138 26343.4
 08 10 2016  01 52  -15.5112 26123.3   3399.4   7.4141 26343.6
 08 10 2016  01 53  -15.5111 26123.3   3399.7   7.4149 26343.6
 08 10 2016  01 54  -15.5107 26123.2   3400.0   7.4154 26343.5
 08 10 2016  01 55  -15.5124 26122.8   3397.1   7.4093 26342.8
 08 10 2016  01 56  -15.5104 26122.6   3398.9   7.4134 26342.8
 08 10 2016  01 57  -15.5114 26121.9   3398.4   7.4125 26342.0
 08 10 2016  01 58  -15.5120 26121.5   3397.6   7.4109 26341.6
 08 10 2016  01 59  -15.5117 26121.1   3398.1   7.4120 26341.2
 08 10 2016  02 00  -15.5119 26120.7   3397.6   7.4110 26340.7
 08 10 2016  02 01  -15.5112 26120.6   3398.4   7.4128 26340.7
 08 10 2016  02 02  -15.5119 26120.7   3397.8   7.4114 26340.8
 08 10 2016  02 03  -15.5115 26120.9   3398.4   7.4127 26341.1
 08 10 2016  02 04  -15.5122 26121.0   3398.7   7.4133 26341.2
 08 10 2016  02 05  -15.5123 26120.9   3398.6   7.4132 26341.0
 08 10 2016  02 06  -15.5127 26120.6   3398.4   7.4128 26340.8
 08 10 2016  02 07  -15.5116 26120.9   3398.7   7.4134 26341.1
 08 10 2016  02 08  -15.5124 26120.6   3398.5   7.4131 26340.8
 08 10 2016  02 09  -15.5128 26120.6   3398.7   7.4135 26340.8
 08 10 2016  02 10  -15.5131 26120.7   3398.4   7.4128 26340.9
 08 10 2016  02 11  -15.5133 26120.8   3398.4   7.4128 26341.0
 08 10 2016  02 12  -15.5132 26120.5   3398.7   7.4134 26340.7
 08 10 2016  02 13  -15.5124 26120.7   3397.7   7.4113 26340.8
 08 10 2016  02 14  -15.5134 26120.3   3398.0   7.4121 26340.5
 08 10 2016  02 15  -15.5119 26120.7   3398.3   7.4125 26340.8
 08 10 2016  02 16  -15.5122 26120.4   3399.8   7.4159 26340.7
 08 10 2016  02 17  -15.5124 26120.9   3398.1   7.4121 26341.0
 08 10 2016  02 18  -15.5128 26121.0   3397.9   7.4115 26341.1
 08 10 2016  02 19  -15.5131 26121.2   3397.7   7.4111 26341.2
 08 10 2016  02 20  -15.5143 26121.1   3398.1   7.4121 26341.2
 08 10 2016  02 21  -15.5122 26121.7   3399.3   7.4144 26341.9
 08 10 2016  02 22  -15.5130 26121.6   3399.2   7.4142 26341.8
 08 10 2016  02 23  -15.5131 26121.6   3398.7   7.4132 26341.8
 08 10 2016  02 24  -15.5143 26121.6   3397.3   7.4102 26341.6
 08 10 2016  02 25  -15.5139 26121.3   3398.7   7.4132 26341.4
 08 10 2016  02 26  -15.5127 26121.3   3399.2   7.4143 26341.6
 08 10 2016  02 27  -15.5135 26121.2   3399.0   7.4139 26341.4
 08 10 2016  02 28  -15.5132 26121.0   3399.4   7.4148 26341.3
 08 10 2016  02 29  -15.5136 26121.0   3399.0   7.4140 26341.2
 08 10 2016  02 30  -15.5139 26121.0   3398.7   7.4133 26341.1
 08 10 2016  02 31  -15.5145 26121.0   3398.3   7.4125 26341.1
 08 10 2016  02 32  -15.5143 26121.0   3398.9   7.4138 26341.2
 08 10 2016  02 33  -15.5143 26121.5   3399.3   7.4144 26341.7
 08 10 2016  02 34  -15.5144 26122.2   3399.2   7.4142 26342.4
 08 10 2016  02 35  -15.5145 26122.5   3399.4   7.4144 26342.8
 08 10 2016  02 36  -15.5147 26122.7   3399.0   7.4135 26342.9
 08 10 2016  02 37  -15.5146 26122.6   3399.9   7.4154 26342.9
 08 10 2016  02 38  -15.5139 26122.9   3399.1   7.4137 26343.1
 08 10 2016  02 39  -15.5146 26122.4   3399.2   7.4139 26342.6
 08 10 2016  02 40  -15.5156 26122.3   3397.9   7.4113 26342.3
 08 10 2016  02 41  -15.5140 26122.6   3399.0   7.4134 26342.8
 08 10 2016  02 42  -15.5149 26122.5   3399.5   7.4145 26342.8
 08 10 2016  02 43  -15.5150 26122.7   3399.3   7.4141 26343.0
 08 10 2016  02 44  -15.5130 26123.6   3398.9   7.4130 26343.8
 08 10 2016  02 45  -15.5141 26123.3   3398.5   7.4121 26343.5
 08 10 2016  02 46  -15.5145 26123.2   3398.4   7.4120 26343.3
 08 10 2016  02 47  -15.5138 26123.3   3398.7   7.4126 26343.5
 08 10 2016  02 48  -15.5141 26123.2   3398.4   7.4120 26343.3
 08 10 2016  02 49  -15.5140 26123.2   3398.6   7.4126 26343.3
 08 10 2016  02 50  -15.5138 26123.1   3398.9   7.4131 26343.3
 08 10 2016  02 51  -15.5142 26122.7   3398.5   7.4123 26342.9
 08 10 2016  02 52  -15.5144 26122.7   3398.1   7.4115 26342.8
 08 10 2016  02 53  -15.5143 26122.6   3398.3   7.4121 26342.7
 08 10 2016  02 54  -15.5143 26122.4   3398.5   7.4124 26342.6
 08 10 2016  02 55  -15.5149 26122.3   3397.9   7.4113 26342.4
 08 10 2016  02 56  -15.5155 26121.9   3399.1   7.4140 26342.1
 08 10 2016  02 57  -15.5160 26121.9   3397.5   7.4105 26342.0
 08 10 2016  02 58  -15.5147 26122.0   3397.9   7.4113 26342.0
 08 10 2016  02 59  -15.5140 26121.8   3398.9   7.4135 26342.0
 08 10 2016  03 00  -15.5153 26121.2   3398.4   7.4126 26341.4
 08 10 2016  03 01  -15.5149 26121.5   3397.1   7.4097 26341.4
 08 10 2016  03 02  -15.5153 26121.1   3398.1   7.4121 26341.2
 08 10 2016  03 03  -15.5157 26121.0   3398.0   7.4118 26341.1
 08 10 2016  03 04  -15.5160 26121.0   3397.7   7.4112 26341.1
 08 10 2016  03 05  -15.5159 26121.0   3398.2   7.4123 26341.2
 08 10 2016  03 06  -15.5168 26120.9   3398.2   7.4122 26341.0
 08 10 2016  03 07  -15.5175 26120.9   3397.8   7.4113 26341.0
 08 10 2016  03 08  -15.5189 26120.8   3397.6   7.4111 26340.8
 08 10 2016  03 09  -15.5175 26121.2   3399.0   7.4138 26341.5
 08 10 2016  03 10  -15.5176 26121.6   3398.7   7.4131 26341.8
 08 10 2016  03 11  -15.5175 26122.0   3398.7   7.4130 26342.1
 08 10 2016  03 12  -15.5189 26121.9   3398.3   7.4122 26342.0
 08 10 2016  03 13  -15.5178 26122.5   3398.3   7.4120 26342.6
 08 10 2016  03 14  -15.5170 26122.7   3401.1   7.4180 26343.2
 08 10 2016  03 15  -15.5170 26123.1   3400.1   7.4157 26343.5
 08 10 2016  03 16  -15.5170 26123.6   3399.5   7.4144 26343.9
 08 10 2016  03 17  -15.5169 26124.0   3399.6   7.4145 26344.2
 08 10 2016  03 18  -15.5168 26124.2   3399.3   7.4137 26344.4
 08 10 2016  03 19  -15.5158 26124.3   3400.0   7.4152 26344.7
 08 10 2016  03 20  -15.5167 26124.1   3398.9   7.4129 26344.3
 08 10 2016  03 21  -15.5163 26123.8   3400.2   7.4157 26344.2
 08 10 2016  03 22  -15.5163 26123.7   3399.2   7.4137 26344.0
 08 10 2016  03 23  -15.5182 26123.6   3397.3   7.4095 26343.6
 08 10 2016  03 24  -15.5164 26123.8   3399.5   7.4142 26344.1
 08 10 2016  03 25  -15.5171 26123.8   3399.8   7.4150 26344.1
 08 10 2016  03 26  -15.5171 26124.1   3399.0   7.4131 26344.3
 08 10 2016  03 27  -15.5176 26124.1   3399.7   7.4146 26344.4
 08 10 2016  03 28  -15.5183 26124.2   3399.4   7.4140 26344.5
 08 10 2016  03 29  -15.5180 26124.6   3399.2   7.4135 26344.8
 08 10 2016  03 30  -15.5181 26124.9   3399.6   7.4142 26345.2
 08 10 2016  03 31  -15.5184 26125.1   3399.1   7.4129 26345.3
 08 10 2016  03 32  -15.5177 26125.3   3400.5   7.4160 26345.6
 08 10 2016  03 33  -15.5173 26125.8   3398.8   7.4121 26346.0
 08 10 2016  03 34  -15.5179 26125.3   3399.7   7.4142 26345.6
 08 10 2016  03 35  -15.5176 26126.0   3398.4   7.4112 26346.1
 08 10 2016  03 36  -15.5167 26125.7   3400.8   7.4166 26346.1
 08 10 2016  03 37  -15.5181 26125.9   3398.5   7.4114 26346.0
 08 10 2016  03 38  -15.5187 26125.5   3399.4   7.4137 26345.7
 08 10 2016  03 39  -15.5163 26126.0   3401.2   7.4174 26346.5
 08 10 2016  03 40  -15.5157 26126.2   3401.4   7.4177 26346.7
 08 10 2016  03 41  -15.5173 26126.5   3399.2   7.4128 26346.7
 08 10 2016  03 42  -15.5168 26126.9   3400.2   7.4148 26347.2
 08 10 2016  03 43  -15.5176 26126.8   3400.6   7.4157 26347.1
 08 10 2016  03 44  -15.5175 26126.9   3399.0   7.4122 26347.1
 08 10 2016  03 45  -15.5173 26127.1   3398.2   7.4105 26347.1
 08 10 2016  03 46  -15.5161 26126.8   3400.9   7.4164 26347.2
 08 10 2016  03 47  -15.5153 26127.1   3400.6   7.4156 26347.5
 08 10 2016  03 48  -15.5168 26126.5   3400.0   7.4145 26346.8
 08 10 2016  03 49  -15.5163 26126.9   3398.7   7.4118 26347.0
 08 10 2016  03 50  -15.5177 26126.2   3398.5   7.4114 26346.3
 08 10 2016  03 51  -15.5177 26125.9   3398.5   7.4116 26346.0
 08 10 2016  03 52  -15.5180 26125.5   3398.5   7.4116 26345.6
 08 10 2016  03 53  -15.5171 26125.7   3397.7   7.4099 26345.7
 08 10 2016  03 54  -15.5172 26125.2   3398.8   7.4124 26345.4
 08 10 2016  03 55  -15.5178 26124.6   3399.7   7.4144 26344.9
 08 10 2016  03 56  -15.5182 26124.3   3398.6   7.4121 26344.5
 08 10 2016  03 57  -15.5187 26124.0   3399.8   7.4149 26344.3
 08 10 2016  03 58  -15.5190 26124.2   3397.5   7.4098 26344.2
 08 10 2016  03 59  -15.5185 26124.1   3397.9   7.4106 26344.1
 08 10 2016  04 00  -15.5191 26123.6   3398.4   7.4120 26343.7
 08 10 2016  04 01  -15.5177 26123.5   3399.9   7.4152 26343.8
 08 10 2016  04 02  -15.5176 26123.3   3399.7   7.4148 26343.6
 08 10 2016  04 03  -15.5187 26122.7   3399.9   7.4153 26343.0
 08 10 2016  04 04  -15.5196 26122.3   3399.3   7.4142 26342.5
 08 10 2016  04 05  -15.5198 26122.4   3397.6   7.4106 26342.4
 08 10 2016  04 06  -15.5196 26122.2   3398.2   7.4120 26342.3
 08 10 2016  04 07  -15.5203 26121.8   3397.9   7.4113 26341.9
 08 10 2016  04 08  -15.5196 26121.9   3398.1   7.4119 26342.0
 08 10 2016  04 09  -15.5198 26121.7   3398.0   7.4115 26341.8
 08 10 2016  04 10  -15.5197 26121.7   3397.5   7.4106 26341.7
 08 10 2016  04 11  -15.5198 26121.4   3398.9   7.4137 26341.6
 08 10 2016  04 12  -15.5215 26121.1   3397.2   7.4100 26341.0
 08 10 2016  04 13  -15.5203 26121.4   3396.2   7.4078 26341.2
 08 10 2016  04 14  -15.5199 26121.0   3398.7   7.4133 26341.1
 08 10 2016  04 15  -15.5210 26120.8   3397.0   7.4097 26340.8
 08 10 2016  04 16  -15.5208 26120.6   3397.7   7.4113 26340.7
 08 10 2016  04 17  -15.5206 26120.5   3398.5   7.4129 26340.6
 08 10 2016  04 18  -15.5201 26120.2   3399.5   7.4153 26340.5
 08 10 2016  04 19  -15.5202 26120.5   3397.1   7.4099 26340.4
 08 10 2016  04 20  -15.5204 26120.1   3397.9   7.4119 26340.1
 08 10 2016  04 21  -15.5197 26119.7   3399.9   7.4163 26340.1
 08 10 2016  04 22  -15.5218 26119.0   3399.0   7.4144 26339.3
 08 10 2016  04 23  -15.5216 26119.2   3398.1   7.4124 26339.3
 08 10 2016  04 24  -15.5207 26119.3   3398.6   7.4135 26339.4
 08 10 2016  04 25  -15.5209 26119.5   3397.0   7.4100 26339.5
 08 10 2016  04 26  -15.5206 26119.6   3398.8   7.4139 26339.8
 08 10 2016  04 27  -15.5197 26120.3   3398.7   7.4136 26340.5
 08 10 2016  04 28  -15.5199 26120.3   3399.4   7.4151 26340.5
 08 10 2016  04 29  -15.5200 26120.7   3399.7   7.4155 26341.0
 08 10 2016  04 30  -15.5204 26121.2   3398.1   7.4120 26341.3
 08 10 2016  04 31  -15.5191 26121.7   3399.2   7.4142 26341.9
 08 10 2016  04 32  -15.5204 26121.7   3399.8   7.4156 26342.0
 08 10 2016  04 33  -15.5199 26123.5   3400.7   7.4170 26343.9
 08 10 2016  04 34  -15.5204 26124.6   3400.6   7.4164 26345.0
 08 10 2016  04 35  -15.5206 26126.3   3402.8   7.4207 26347.0
 08 10 2016  04 36  -15.5202 26128.4   3403.4   7.4215 26349.1
 08 10 2016  04 37  -15.5194 26129.4   3404.1   7.4226 26350.2
 08 10 2016  04 38  -15.5206 26130.1   3403.1   7.4203 26350.8
 08 10 2016  04 39  -15.5207 26131.9   3400.3   7.4138 26352.2
 08 10 2016  04 40  -15.5193 26132.9   3403.3   7.4200 26353.6
 08 10 2016  04 41  -15.5218 26133.2   3400.5   7.4137 26353.5
 08 10 2016  04 42  -15.5213 26134.0   3399.9   7.4123 26354.3
 08 10 2016  04 43  -15.5215 26134.6   3401.2   7.4148 26355.0
 08 10 2016  04 44  -15.5215 26134.7   3400.6   7.4136 26355.0
 08 10 2016  04 45  -15.5205 26135.2   3400.6   7.4134 26355.5
 08 10 2016  04 46  -15.5223 26135.4   3401.3   7.4148 26355.7
 08 10 2016  04 47  -15.5231 26135.6   3399.7   7.4114 26355.8
 08 10 2016  04 48  -15.5228 26136.0   3398.9   7.4094 26356.1
 08 10 2016  04 49  -15.5224 26135.8   3400.5   7.4131 26356.1
 08 10 2016  04 50  -15.5209 26136.4   3401.7   7.4156 26356.8
 08 10 2016  04 51  -15.5225 26135.9   3401.2   7.4145 26356.3
 08 10 2016  04 52  -15.5236 26136.1   3399.0   7.4097 26356.2
 08 10 2016  04 53  -15.5220 26136.3   3400.4   7.4127 26356.5
 08 10 2016  04 54  -15.5227 26136.4   3399.4   7.4106 26356.5
 08 10 2016  04 55  -15.5226 26135.9   3400.3   7.4127 26356.2
 08 10 2016  04 56  -15.5211 26136.2   3400.3   7.4126 26356.5
 08 10 2016  04 57  -15.5211 26136.0   3399.6   7.4111 26356.2
 08 10 2016  04 58  -15.5210 26135.9   3398.5   7.4088 26355.9
 08 10 2016  04 59  -15.5203 26135.7   3398.9   7.4096 26355.8
 08 10 2016  05 00  -15.5201 26135.4   3399.7   7.4114 26355.6
 08 10 2016  05 01  -15.5182 26135.6   3400.4   7.4128 26355.9
 08 10 2016  05 02  -15.5194 26135.1   3399.9   7.4119 26355.3
 08 10 2016  05 03  -15.5188 26135.1   3399.2   7.4104 26355.2
 08 10 2016  05 04  -15.5183 26134.7   3400.3   7.4129 26355.0
 08 10 2016  05 05  -15.5190 26134.4   3398.8   7.4097 26354.5
 08 10 2016  05 06  -15.5186 26133.8   3398.9   7.4103 26353.9
 08 10 2016  05 07  -15.5170 26133.5   3398.8   7.4101 26353.6
 08 10 2016  05 08  -15.5164 26132.8   3399.4   7.4116 26352.9
 08 10 2016  05 09  -15.5162 26132.3   3399.3   7.4114 26352.5
