Manaus - AM                    UNIVAP-03  <284> 1 Min. Reported data

 DD MM YYYY  HH MM   D(Deg)  H(nT)   Z(nT)   I(Deg)   F(nT)

 10 10 2016  00 00  -15.5033 26122.9   3399.4   7.4142 26343.2
 10 10 2016  00 01  -15.5038 26123.2   3400.2   7.4160 26343.6
 10 10 2016  00 02  -15.5028 26123.6   3401.5   7.4187 26344.1
 10 10 2016  00 03  -15.5039 26123.8   3400.3   7.4160 26344.2
 10 10 2016  00 04  -15.5035 26124.4   3400.3   7.4158 26344.8
 10 10 2016  00 05  -15.5040 26124.4   3400.3   7.4158 26344.7
 10 10 2016  00 06  -15.5040 26124.5   3398.8   7.4126 26344.6
 10 10 2016  00 07  -15.5034 26124.4   3400.3   7.4159 26344.7
 10 10 2016  00 08  -15.5027 26124.2   3401.4   7.4183 26344.7
 10 10 2016  00 09  -15.5029 26124.1   3400.2   7.4158 26344.4
 10 10 2016  00 10  -15.5035 26123.9   3399.1   7.4133 26344.1
 10 10 2016  00 11  -15.5025 26123.9   3400.9   7.4172 26344.3
 10 10 2016  00 12  -15.5031 26123.8   3399.0   7.4132 26344.0
 10 10 2016  00 13  -15.5033 26123.6   3399.5   7.4144 26343.9
 10 10 2016  00 14  -15.5044 26123.5   3399.8   7.4149 26343.8
 10 10 2016  00 15  -15.5048 26123.5   3399.7   7.4147 26343.8
 10 10 2016  00 16  -15.5041 26123.8   3400.1   7.4155 26344.1
 10 10 2016  00 17  -15.5033 26124.2   3399.4   7.4138 26344.4
 10 10 2016  00 18  -15.5033 26124.0   3398.9   7.4128 26344.2
 10 10 2016  00 19  -15.5044 26123.6   3398.8   7.4128 26343.8
 10 10 2016  00 20  -15.5046 26123.1   3400.6   7.4168 26343.6
 10 10 2016  00 21  -15.5057 26123.0   3398.9   7.4132 26343.2
 10 10 2016  00 22  -15.5052 26122.9   3399.6   7.4147 26343.2
 10 10 2016  00 23  -15.5057 26122.8   3398.5   7.4123 26342.9
 10 10 2016  00 24  -15.5057 26122.5   3399.6   7.4148 26342.7
 10 10 2016  00 25  -15.5060 26122.2   3398.9   7.4133 26342.4
 10 10 2016  00 26  -15.5054 26122.3   3399.9   7.4155 26342.7
 10 10 2016  00 27  -15.5065 26122.3   3399.3   7.4144 26342.5
 10 10 2016  00 28  -15.5071 26122.2   3399.0   7.4136 26342.4
 10 10 2016  00 29  -15.5055 26122.7   3399.6   7.4149 26343.0
 10 10 2016  00 30  -15.5058 26122.6   3399.9   7.4154 26342.9
 10 10 2016  00 31  -15.5068 26122.2   3400.7   7.4173 26342.6
 10 10 2016  00 32  -15.5076 26122.0   3400.2   7.4162 26342.4
 10 10 2016  00 33  -15.5088 26121.7   3399.1   7.4141 26342.0
 10 10 2016  00 34  -15.5070 26121.9   3400.8   7.4175 26342.3
 10 10 2016  00 35  -15.5068 26122.1   3399.1   7.4139 26342.3
 10 10 2016  00 36  -15.5079 26121.7   3399.0   7.4137 26341.9
 10 10 2016  00 37  -15.5082 26121.2   3400.3   7.4168 26341.6
 10 10 2016  00 38  -15.5097 26121.0   3397.7   7.4112 26341.0
 10 10 2016  00 39  -15.5092 26120.8   3398.4   7.4128 26340.9
 10 10 2016  00 40  -15.5093 26120.7   3397.5   7.4109 26340.8
 10 10 2016  00 41  -15.5107 26120.0   3399.1   7.4144 26340.2
 10 10 2016  00 42  -15.5104 26120.2   3398.1   7.4122 26340.3
 10 10 2016  00 43  -15.5097 26120.0   3400.7   7.4180 26340.4
 10 10 2016  00 44  -15.5105 26120.0   3399.7   7.4157 26340.3
 10 10 2016  00 45  -15.5100 26120.0   3398.7   7.4135 26340.2
 10 10 2016  00 46  -15.5102 26119.7   3401.0   7.4186 26340.1
 10 10 2016  00 47  -15.5100 26119.9   3399.3   7.4149 26340.2
 10 10 2016  00 48  -15.5112 26119.4   3398.2   7.4128 26339.5
 10 10 2016  00 49  -15.5104 26119.3   3399.7   7.4159 26339.6
 10 10 2016  00 50  -15.5104 26119.1   3398.5   7.4134 26339.3
 10 10 2016  00 51  -15.5111 26118.3   3398.9   7.4146 26338.5
 10 10 2016  00 52  -15.5113 26117.9   3397.8   7.4123 26338.0
 10 10 2016  00 53  -15.5106 26117.6   3397.7   7.4122 26337.7
 10 10 2016  00 54  -15.5112 26117.0   3397.7   7.4123 26337.1
 10 10 2016  00 55  -15.5105 26116.8   3399.0   7.4152 26337.0
 10 10 2016  00 56  -15.5109 26116.7   3399.4   7.4161 26337.0
 10 10 2016  00 57  -15.5105 26117.4   3399.6   7.4162 26337.7
 10 10 2016  00 58  -15.5116 26117.0   3398.9   7.4148 26337.3
 10 10 2016  00 59  -15.5114 26116.9   3398.2   7.4134 26337.1
 10 10 2016  01 00  -15.5106 26117.2   3399.2   7.4155 26337.5
 10 10 2016  01 01  -15.5104 26117.4   3398.4   7.4137 26337.6
 10 10 2016  01 02  -15.5108 26117.1   3398.1   7.4131 26337.2
 10 10 2016  01 03  -15.5100 26116.6   3400.6   7.4186 26337.1
 10 10 2016  01 04  -15.5108 26116.7   3398.0   7.4130 26336.8
 10 10 2016  01 05  -15.5109 26116.5   3399.3   7.4158 26336.8
 10 10 2016  01 06  -15.5096 26116.8   3400.3   7.4180 26337.2
 10 10 2016  01 07  -15.5103 26116.5   3400.0   7.4175 26336.9
 10 10 2016  01 08  -15.5106 26116.3   3399.9   7.4172 26336.6
 10 10 2016  01 09  -15.5102 26116.8   3399.9   7.4170 26337.2
 10 10 2016  01 10  -15.5101 26116.6   3399.4   7.4160 26336.9
 10 10 2016  01 11  -15.5102 26116.4   3399.4   7.4161 26336.7
 10 10 2016  01 12  -15.5097 26117.0   3400.3   7.4178 26337.4
 10 10 2016  01 13  -15.5093 26117.3   3400.7   7.4187 26337.7
 10 10 2016  01 14  -15.5091 26117.7   3400.2   7.4176 26338.1
 10 10 2016  01 15  -15.5087 26118.0   3400.5   7.4179 26338.5
 10 10 2016  01 16  -15.5087 26118.4   3400.3   7.4174 26338.8
 10 10 2016  01 17  -15.5078 26118.4   3400.5   7.4179 26338.8
 10 10 2016  01 18  -15.5076 26118.9   3399.7   7.4160 26339.2
 10 10 2016  01 19  -15.5076 26119.3   3400.0   7.4167 26339.7
 10 10 2016  01 20  -15.5065 26120.4   3400.8   7.4181 26340.8
 10 10 2016  01 21  -15.5062 26119.8   3401.7   7.4201 26340.4
 10 10 2016  01 22  -15.5050 26121.0   3401.3   7.4189 26341.5
 10 10 2016  01 23  -15.5076 26120.5   3400.1   7.4165 26340.9
 10 10 2016  01 24  -15.5053 26121.3   3401.8   7.4199 26341.9
 10 10 2016  01 25  -15.5057 26121.4   3401.9   7.4202 26342.0
 10 10 2016  01 26  -15.5057 26121.1   3400.9   7.4180 26341.6
 10 10 2016  01 27  -15.5044 26122.1   3400.4   7.4166 26342.5
 10 10 2016  01 28  -15.5057 26121.3   3400.7   7.4176 26341.8
 10 10 2016  01 29  -15.5059 26121.1   3400.4   7.4170 26341.5
 10 10 2016  01 30  -15.5062 26120.9   3400.1   7.4163 26341.3
 10 10 2016  01 31  -15.5069 26120.0   3400.6   7.4176 26340.5
 10 10 2016  01 32  -15.5065 26120.0   3398.7   7.4136 26340.2
 10 10 2016  01 33  -15.5063 26120.3   3399.3   7.4149 26340.6
 10 10 2016  01 34  -15.5072 26119.6   3398.6   7.4134 26339.7
 10 10 2016  01 35  -15.5068 26119.2   3399.7   7.4159 26339.5
 10 10 2016  01 36  -15.5057 26118.9   3400.6   7.4181 26339.3
 10 10 2016  01 37  -15.5069 26118.6   3399.6   7.4158 26338.9
 10 10 2016  01 38  -15.5071 26118.4   3399.1   7.4148 26338.6
 10 10 2016  01 39  -15.5067 26118.0   3400.0   7.4169 26338.3
 10 10 2016  01 40  -15.5085 26117.4   3400.0   7.4172 26337.7
 10 10 2016  01 41  -15.5077 26117.9   3398.0   7.4127 26338.1
 10 10 2016  01 42  -15.5099 26117.1   3399.0   7.4151 26337.4
 10 10 2016  01 43  -15.5092 26117.4   3398.2   7.4133 26337.6
 10 10 2016  01 44  -15.5081 26117.6   3398.7   7.4144 26337.8
 10 10 2016  01 45  -15.5079 26117.2   3400.0   7.4172 26337.6
 10 10 2016  01 46  -15.5098 26116.3   3399.9   7.4172 26336.7
 10 10 2016  01 47  -15.5097 26116.5   3398.3   7.4137 26336.6
 10 10 2016  01 48  -15.5095 26115.9   3401.0   7.4196 26336.5
 10 10 2016  01 49  -15.5088 26116.2   3400.0   7.4176 26336.6
 10 10 2016  01 50  -15.5088 26116.2   3399.6   7.4167 26336.6
 10 10 2016  01 51  -15.5087 26116.0   3400.2   7.4179 26336.5
 10 10 2016  01 52  -15.5105 26115.3   3400.3   7.4184 26335.7
 10 10 2016  01 53  -15.5106 26115.4   3398.1   7.4135 26335.6
 10 10 2016  01 54  -15.5102 26114.8   3400.2   7.4182 26335.2
 10 10 2016  01 55  -15.5110 26114.3   3399.3   7.4164 26334.6
 10 10 2016  01 56  -15.5107 26114.0   3398.7   7.4154 26334.3
 10 10 2016  01 57  -15.5103 26113.8   3400.3   7.4189 26334.2
 10 10 2016  01 58  -15.5121 26113.2   3399.5   7.4172 26333.6
 10 10 2016  01 59  -15.5110 26113.5   3399.5   7.4172 26333.8
 10 10 2016  02 00  -15.5109 26113.4   3400.2   7.4186 26333.9
 10 10 2016  02 01  -15.5112 26113.6   3399.8   7.4177 26333.9
 10 10 2016  02 02  -15.5112 26113.5   3399.7   7.4176 26333.9
 10 10 2016  02 03  -15.5112 26113.9   3399.9   7.4178 26334.3
 10 10 2016  02 04  -15.5111 26113.9   3400.6   7.4194 26334.4
 10 10 2016  02 05  -15.5111 26114.0   3400.2   7.4185 26334.5
 10 10 2016  02 06  -15.5116 26113.9   3399.4   7.4168 26334.3
 10 10 2016  02 07  -15.5114 26113.8   3400.3   7.4188 26334.2
 10 10 2016  02 08  -15.5111 26113.9   3400.2   7.4185 26334.3
 10 10 2016  02 09  -15.5120 26113.6   3400.2   7.4186 26334.1
 10 10 2016  02 10  -15.5106 26114.1   3400.3   7.4187 26334.5
 10 10 2016  02 11  -15.5120 26113.8   3399.6   7.4173 26334.2
 10 10 2016  02 12  -15.5119 26113.7   3400.9   7.4201 26334.2
 10 10 2016  02 13  -15.5120 26113.7   3400.1   7.4183 26334.1
 10 10 2016  02 14  -15.5123 26113.7   3400.7   7.4198 26334.2
 10 10 2016  02 15  -15.5114 26114.0   3400.6   7.4193 26334.5
 10 10 2016  02 16  -15.5123 26113.9   3400.2   7.4186 26334.3
 10 10 2016  02 17  -15.5122 26113.9   3400.0   7.4182 26334.3
 10 10 2016  02 18  -15.5124 26113.8   3400.6   7.4194 26334.3
 10 10 2016  02 19  -15.5120 26114.0   3400.2   7.4185 26334.4
 10 10 2016  02 20  -15.5121 26114.0   3400.2   7.4185 26334.4
 10 10 2016  02 21  -15.5121 26114.0   3400.3   7.4187 26334.5
 10 10 2016  02 22  -15.5122 26114.0   3400.8   7.4198 26334.5
 10 10 2016  02 23  -15.5126 26114.1   3400.3   7.4188 26334.5
 10 10 2016  02 24  -15.5122 26114.3   3400.4   7.4188 26334.8
 10 10 2016  02 25  -15.5131 26114.4   3399.2   7.4163 26334.7
 10 10 2016  02 26  -15.5115 26114.7   3399.8   7.4174 26335.1
 10 10 2016  02 27  -15.5118 26114.5   3401.0   7.4201 26335.0
 10 10 2016  02 28  -15.5133 26114.2   3399.9   7.4177 26334.6
 10 10 2016  02 29  -15.5114 26114.6   3400.2   7.4184 26335.0
 10 10 2016  02 30  -15.5122 26114.1   3402.1   7.4225 26334.8
 10 10 2016  02 31  -15.5126 26114.5   3401.3   7.4208 26335.1
 10 10 2016  02 32  -15.5127 26115.0   3400.4   7.4187 26335.5
 10 10 2016  02 33  -15.5138 26115.2   3399.8   7.4173 26335.5
 10 10 2016  02 34  -15.5121 26115.9   3400.4   7.4185 26336.3
 10 10 2016  02 35  -15.5128 26116.0   3401.1   7.4199 26336.5
 10 10 2016  02 36  -15.5126 26116.5   3400.9   7.4193 26337.0
 10 10 2016  02 37  -15.5125 26116.9   3400.7   7.4188 26337.3
 10 10 2016  02 38  -15.5122 26117.2   3400.9   7.4191 26337.7
 10 10 2016  02 39  -15.5121 26117.4   3400.8   7.4188 26337.9
 10 10 2016  02 40  -15.5124 26117.3   3400.4   7.4181 26337.8
 10 10 2016  02 41  -15.5124 26117.3   3400.6   7.4184 26337.7
 10 10 2016  02 42  -15.5127 26117.0   3400.4   7.4181 26337.4
 10 10 2016  02 43  -15.5126 26116.9   3400.1   7.4175 26337.3
 10 10 2016  02 44  -15.5117 26116.9   3400.9   7.4191 26337.4
 10 10 2016  02 45  -15.5124 26116.7   3400.4   7.4181 26337.2
 10 10 2016  02 46  -15.5123 26116.9   3399.2   7.4156 26337.1
 10 10 2016  02 47  -15.5129 26116.6   3399.3   7.4157 26336.9
 10 10 2016  02 48  -15.5125 26116.6   3398.5   7.4142 26336.8
 10 10 2016  02 49  -15.5127 26116.0   3400.9   7.4195 26336.5
 10 10 2016  02 50  -15.5117 26116.1   3400.1   7.4178 26336.5
 10 10 2016  02 51  -15.5114 26116.1   3400.9   7.4195 26336.6
 10 10 2016  02 52  -15.5120 26115.8   3401.4   7.4206 26336.4
 10 10 2016  02 53  -15.5134 26116.2   3399.0   7.4153 26336.5
 10 10 2016  02 54  -15.5133 26116.3   3399.5   7.4165 26336.7
 10 10 2016  02 55  -15.5123 26116.7   3400.2   7.4178 26337.1
 10 10 2016  02 56  -15.5128 26116.9   3399.9   7.4170 26337.3
 10 10 2016  02 57  -15.5108 26117.7   3401.0   7.4192 26338.2
 10 10 2016  02 58  -15.5108 26118.3   3399.3   7.4154 26338.6
 10 10 2016  02 59  -15.5103 26118.4   3401.6   7.4203 26338.9
 10 10 2016  03 00  -15.5109 26118.6   3400.8   7.4186 26339.1
 10 10 2016  03 01  -15.5106 26118.7   3401.4   7.4198 26339.2
 10 10 2016  03 02  -15.5110 26118.4   3401.2   7.4195 26338.9
 10 10 2016  03 03  -15.5115 26118.2   3398.6   7.4140 26338.4
 10 10 2016  03 04  -15.5106 26117.8   3400.6   7.4183 26338.2
 10 10 2016  03 05  -15.5099 26117.9   3400.2   7.4175 26338.3
 10 10 2016  03 06  -15.5116 26117.7   3398.5   7.4138 26337.9
 10 10 2016  03 07  -15.5114 26117.4   3400.0   7.4171 26337.8
 10 10 2016  03 08  -15.5108 26117.4   3400.2   7.4175 26337.8
 10 10 2016  03 09  -15.5118 26117.0   3400.5   7.4183 26337.4
 10 10 2016  03 10  -15.5104 26117.5   3399.1   7.4152 26337.7
 10 10 2016  03 11  -15.5115 26116.9   3400.0   7.4173 26337.3
 10 10 2016  03 12  -15.5124 26116.8   3399.2   7.4155 26337.0
 10 10 2016  03 13  -15.5118 26117.1   3398.5   7.4140 26337.3
 10 10 2016  03 14  -15.5102 26117.1   3400.8   7.4189 26337.5
 10 10 2016  03 15  -15.5105 26117.0   3399.4   7.4159 26337.3
 10 10 2016  03 16  -15.5127 26116.5   3398.5   7.4141 26336.7
 10 10 2016  03 17  -15.5126 26116.1   3399.8   7.4170 26336.5
 10 10 2016  03 18  -15.5129 26115.9   3399.0   7.4154 26336.1
 10 10 2016  03 19  -15.5121 26115.8   3400.1   7.4177 26336.2
 10 10 2016  03 20  -15.5127 26115.5   3399.0   7.4154 26335.8
 10 10 2016  03 21  -15.5118 26115.3   3400.9   7.4196 26335.8
 10 10 2016  03 22  -15.5114 26115.4   3401.0   7.4199 26335.9
 10 10 2016  03 23  -15.5121 26115.3   3400.5   7.4188 26335.7
 10 10 2016  03 24  -15.5132 26115.3   3400.1   7.4180 26335.7
 10 10 2016  03 25  -15.5141 26115.3   3399.3   7.4162 26335.6
 10 10 2016  03 26  -15.5149 26115.1   3399.6   7.4170 26335.4
 10 10 2016  03 27  -15.5151 26114.9   3400.3   7.4184 26335.3
 10 10 2016  03 28  -15.5142 26115.0   3401.3   7.4205 26335.6
 10 10 2016  03 29  -15.5145 26115.0   3401.6   7.4213 26335.6
 10 10 2016  03 30  -15.5136 26115.3   3402.1   7.4223 26335.9
 10 10 2016  03 31  -15.5132 26115.9   3399.6   7.4167 26336.3
 10 10 2016  03 32  -15.5150 26115.4   3399.3   7.4161 26335.7
 10 10 2016  03 33  -15.5149 26115.2   3399.1   7.4158 26335.5
 10 10 2016  03 34  -15.5144 26114.6   3401.0   7.4201 26335.1
 10 10 2016  03 35  -15.5163 26113.8   3397.8   7.4134 26333.9
 10 10 2016  03 36  -15.5160 26113.3   3399.7   7.4176 26333.7
 10 10 2016  03 37  -15.5172 26112.9   3399.5   7.4172 26333.3
 10 10 2016  03 38  -15.5171 26112.7   3400.1   7.4186 26333.1
 10 10 2016  03 39  -15.5176 26112.5   3398.6   7.4155 26332.8
 10 10 2016  03 40  -15.5179 26112.1   3400.1   7.4189 26332.6
 10 10 2016  03 41  -15.5172 26112.4   3399.0   7.4164 26332.7
 10 10 2016  03 42  -15.5177 26112.1   3399.1   7.4167 26332.4
 10 10 2016  03 43  -15.5179 26111.6   3399.9   7.4185 26332.0
 10 10 2016  03 44  -15.5177 26111.5   3399.7   7.4181 26331.9
 10 10 2016  03 45  -15.5179 26111.1   3399.6   7.4180 26331.5
 10 10 2016  03 46  -15.5175 26111.0   3399.6   7.4180 26331.4
 10 10 2016  03 47  -15.5170 26111.1   3399.6   7.4180 26331.5
 10 10 2016  03 48  -15.5175 26110.7   3400.1   7.4192 26331.2
 10 10 2016  03 49  -15.5175 26110.3   3401.7   7.4228 26331.0
 10 10 2016  03 50  -15.5176 26110.4   3400.2   7.4196 26330.8
 10 10 2016  03 51  -15.5181 26110.3   3399.6   7.4183 26330.7
 10 10 2016  03 52  -15.5191 26109.9   3398.6   7.4161 26330.2
 10 10 2016  03 53  -15.5183 26109.9   3399.1   7.4174 26330.2
 10 10 2016  03 54  -15.5178 26109.4   3401.3   7.4222 26330.0
 10 10 2016  03 55  -15.5183 26109.1   3400.2   7.4199 26329.6
 10 10 2016  03 56  -15.5171 26108.9   3401.1   7.4219 26329.4
 10 10 2016  03 57  -15.5188 26108.3   3399.8   7.4192 26328.7
 10 10 2016  03 58  -15.5185 26108.0   3400.3   7.4205 26328.5
 10 10 2016  03 59  -15.5193 26107.7   3398.5   7.4165 26328.0
 10 10 2016  04 00  -15.5174 26107.6   3399.9   7.4197 26328.1
 10 10 2016  04 01  -15.5176 26107.2   3400.0   7.4201 26327.6
 10 10 2016  04 02  -15.5172 26106.8   3401.0   7.4222 26327.4
 10 10 2016  04 03  -15.5184 26106.2   3401.7   7.4240 26326.9
 10 10 2016  04 04  -15.5181 26106.1   3402.0   7.4247 26326.9
 10 10 2016  04 05  -15.5177 26106.1   3402.1   7.4249 26326.8
 10 10 2016  04 06  -15.5191 26106.0   3400.6   7.4216 26326.5
 10 10 2016  04 07  -15.5178 26106.3   3400.3   7.4209 26326.8
 10 10 2016  04 08  -15.5187 26106.0   3400.2   7.4207 26326.5
 10 10 2016  04 09  -15.5193 26105.8   3399.7   7.4198 26326.3
 10 10 2016  04 10  -15.5183 26105.8   3400.6   7.4217 26326.4
 10 10 2016  04 11  -15.5198 26105.3   3400.8   7.4222 26325.8
 10 10 2016  04 12  -15.5181 26105.6   3401.2   7.4230 26326.2
 10 10 2016  04 13  -15.5189 26105.2   3400.7   7.4221 26325.8
 10 10 2016  04 14  -15.5191 26105.0   3401.0   7.4228 26325.6
 10 10 2016  04 15  -15.5186 26104.9   3401.5   7.4238 26325.6
 10 10 2016  04 16  -15.5200 26104.3   3401.3   7.4235 26325.0
 10 10 2016  04 17  -15.5214 26104.0   3399.7   7.4202 26324.4
 10 10 2016  04 18  -15.5206 26103.8   3400.7   7.4224 26324.4
 10 10 2016  04 19  -15.5218 26103.7   3399.8   7.4205 26324.2
 10 10 2016  04 20  -15.5221 26103.7   3399.5   7.4198 26324.1
 10 10 2016  04 21  -15.5214 26103.5   3401.7   7.4247 26324.2
 10 10 2016  04 22  -15.5226 26103.1   3400.9   7.4230 26323.8
 10 10 2016  04 23  -15.5232 26102.8   3400.5   7.4223 26323.4
 10 10 2016  04 24  -15.5220 26103.1   3400.5   7.4222 26323.7
 10 10 2016  04 25  -15.5225 26102.7   3401.7   7.4249 26323.4
 10 10 2016  04 26  -15.5236 26102.1   3401.6   7.4248 26322.8
 10 10 2016  04 27  -15.5230 26102.0   3401.7   7.4252 26322.7
 10 10 2016  04 28  -15.5228 26101.9   3401.8   7.4255 26322.6
 10 10 2016  04 29  -15.5242 26101.1   3402.3   7.4266 26321.9
 10 10 2016  04 30  -15.5241 26101.2   3401.4   7.4246 26321.9
 10 10 2016  04 31  -15.5240 26101.2   3401.6   7.4251 26321.9
 10 10 2016  04 32  -15.5254 26101.3   3400.5   7.4228 26321.9
 10 10 2016  04 33  -15.5248 26101.6   3401.1   7.4240 26322.3
 10 10 2016  04 34  -15.5248 26101.8   3401.6   7.4249 26322.5
 10 10 2016  04 35  -15.5253 26101.9   3401.8   7.4255 26322.6
 10 10 2016  04 36  -15.5254 26102.2   3401.8   7.4252 26323.0
 10 10 2016  04 37  -15.5247 26102.7   3402.3   7.4262 26323.5
 10 10 2016  04 38  -15.5245 26103.3   3402.2   7.4257 26324.1
 10 10 2016  04 39  -15.5245 26103.8   3402.4   7.4261 26324.6
 10 10 2016  04 40  -15.5244 26104.5   3402.7   7.4266 26325.3
 10 10 2016  04 41  -15.5243 26105.4   3402.8   7.4265 26326.2
 10 10 2016  04 42  -15.5243 26106.2   3403.1   7.4271 26327.1
 10 10 2016  04 43  -15.5244 26106.8   3403.4   7.4274 26327.7
 10 10 2016  04 44  -15.5253 26107.5   3401.6   7.4233 26328.2
 10 10 2016  04 45  -15.5240 26107.9   3403.3   7.4269 26328.8
 10 10 2016  04 46  -15.5250 26107.7   3402.9   7.4261 26328.6
 10 10 2016  04 47  -15.5250 26107.7   3403.0   7.4263 26328.6
 10 10 2016  04 48  -15.5236 26108.1   3402.1   7.4244 26328.8
 10 10 2016  04 49  -15.5232 26108.0   3401.4   7.4229 26328.7
 10 10 2016  04 50  -15.5223 26107.7   3402.7   7.4257 26328.5
 10 10 2016  04 51  -15.5221 26107.5   3400.9   7.4220 26328.1
 10 10 2016  04 52  -15.5220 26106.9   3401.3   7.4229 26327.5
 10 10 2016  04 53  -15.5216 26106.8   3401.3   7.4230 26327.5
 10 10 2016  04 54  -15.5215 26106.6   3401.8   7.4241 26327.3
 10 10 2016  04 55  -15.5209 26106.8   3400.9   7.4220 26327.4
 10 10 2016  04 56  -15.5208 26106.8   3401.2   7.4228 26327.5
 10 10 2016  04 57  -15.5202 26107.1   3401.9   7.4241 26327.8
 10 10 2016  04 58  -15.5206 26107.3   3401.9   7.4241 26328.0
 10 10 2016  04 59  -15.5190 26107.7   3402.1   7.4245 26328.4
 10 10 2016  05 00  -15.5184 26107.7   3403.6   7.4277 26328.6
 10 10 2016  05 01  -15.5196 26107.6   3402.4   7.4251 26328.4
 10 10 2016  05 02  -15.5190 26108.0   3403.5   7.4273 26328.9
 10 10 2016  05 03  -15.5183 26109.0   3401.7   7.4231 26329.6
 10 10 2016  05 04  -15.5194 26109.3   3401.2   7.4220 26329.9
 10 10 2016  05 05  -15.5191 26109.5   3402.0   7.4236 26330.2
 10 10 2016  05 06  -15.5183 26109.4   3402.9   7.4256 26330.3
 10 10 2016  05 07  -15.5187 26109.2   3402.2   7.4241 26329.9
 10 10 2016  05 08  -15.5208 26108.4   3401.8   7.4236 26329.1
 10 10 2016  05 09  -15.5203 26108.5   3401.1   7.4220 26329.1
