Manaus - AM                    UNIVAP-03  <292> 1 Min. Reported data

 DD MM YYYY  HH MM   D(Deg)  H(nT)   Z(nT)   I(Deg)   F(nT)

 18 10 2016  00 00  -15.5114 26128.7   3400.6   7.4152 26349.0
 18 10 2016  00 01  -15.5111 26128.0   3401.6   7.4176 26348.5
 18 10 2016  00 02  -15.5111 26127.7   3400.4   7.4151 26348.1
 18 10 2016  00 03  -15.5111 26127.7   3403.0   7.4207 26348.4
 18 10 2016  00 04  -15.5117 26126.6   3401.9   7.4186 26347.1
 18 10 2016  00 05  -15.5121 26125.3   3401.1   7.4173 26345.8
 18 10 2016  00 06  -15.5132 26124.6   3401.1   7.4176 26345.0
 18 10 2016  00 07  -15.5137 26125.0   3401.9   7.4191 26345.6
 18 10 2016  00 08  -15.5143 26124.8   3401.8   7.4190 26345.3
 18 10 2016  00 09  -15.5151 26124.1   3401.6   7.4188 26344.6
 18 10 2016  00 10  -15.5156 26123.2   3401.3   7.4184 26343.7
 18 10 2016  00 11  -15.5160 26122.5   3401.4   7.4188 26343.0
 18 10 2016  00 12  -15.5165 26121.6   3401.1   7.4184 26342.1
 18 10 2016  00 13  -15.5171 26121.4   3401.7   7.4197 26342.0
 18 10 2016  00 14  -15.5169 26121.9   3401.7   7.4196 26342.4
 18 10 2016  00 15  -15.5170 26121.2   3402.9   7.4223 26341.9
 18 10 2016  00 16  -15.5153 26121.2   3402.2   7.4208 26341.8
 18 10 2016  00 17  -15.5157 26120.4   3402.4   7.4215 26341.1
 18 10 2016  00 18  -15.5166 26119.8   3401.0   7.4187 26340.3
 18 10 2016  00 19  -15.5165 26119.4   3402.3   7.4215 26340.1
 18 10 2016  00 20  -15.5165 26120.1   3401.8   7.4202 26340.7
 18 10 2016  00 21  -15.5152 26121.0   3401.7   7.4198 26341.5
 18 10 2016  00 22  -15.5142 26120.8   3402.7   7.4221 26341.5
 18 10 2016  00 23  -15.5131 26121.0   3403.5   7.4237 26341.8
 18 10 2016  00 24  -15.5120 26121.1   3405.1   7.4271 26342.1
 18 10 2016  00 25  -15.5129 26121.7   3402.8   7.4220 26342.4
 18 10 2016  00 26  -15.5115 26123.3   3404.8   7.4258 26344.3
 18 10 2016  00 27  -15.5097 26124.0   3406.7   7.4298 26345.2
 18 10 2016  00 28  -15.5088 26122.9   3404.2   7.4246 26343.8
 18 10 2016  00 29  -15.5108 26121.5   3403.5   7.4234 26342.3
 18 10 2016  00 30  -15.5118 26121.3   3402.5   7.4214 26342.0
 18 10 2016  00 31  -15.5120 26120.6   3401.8   7.4200 26341.2
 18 10 2016  00 32  -15.5119 26120.3   3402.7   7.4222 26341.0
 18 10 2016  00 33  -15.5130 26120.7   3401.1   7.4185 26341.2
 18 10 2016  00 34  -15.5131 26120.4   3403.2   7.4232 26341.2
 18 10 2016  00 35  -15.5113 26121.2   3403.3   7.4232 26342.0
 18 10 2016  00 36  -15.5110 26121.1   3403.2   7.4230 26341.9
 18 10 2016  00 37  -15.5114 26120.3   3403.1   7.4230 26341.1
 18 10 2016  00 38  -15.5116 26120.1   3402.5   7.4218 26340.8
 18 10 2016  00 39  -15.5105 26120.1   3403.4   7.4237 26340.9
 18 10 2016  00 40  -15.5117 26119.9   3401.8   7.4204 26340.5
 18 10 2016  00 41  -15.5088 26120.4   3403.5   7.4239 26341.2
 18 10 2016  00 42  -15.5094 26120.2   3402.8   7.4223 26340.9
 18 10 2016  00 43  -15.5100 26120.1   3402.7   7.4222 26340.8
 18 10 2016  00 44  -15.5096 26120.5   3402.6   7.4219 26341.2
 18 10 2016  00 45  -15.5095 26120.8   3402.1   7.4208 26341.4
 18 10 2016  00 46  -15.5100 26120.8   3403.6   7.4239 26341.6
 18 10 2016  00 47  -15.5110 26120.0   3401.5   7.4197 26340.5
 18 10 2016  00 48  -15.5095 26119.8   3401.1   7.4188 26340.3
 18 10 2016  00 49  -15.5091 26119.6   3402.8   7.4225 26340.3
 18 10 2016  00 50  -15.5104 26119.0   3401.9   7.4209 26339.6
 18 10 2016  00 51  -15.5093 26118.7   3403.9   7.4251 26339.5
 18 10 2016  00 52  -15.5102 26118.8   3402.9   7.4229 26339.5
 18 10 2016  00 53  -15.5108 26118.9   3402.6   7.4224 26339.6
 18 10 2016  00 54  -15.5088 26119.2   3403.1   7.4233 26340.0
 18 10 2016  00 55  -15.5092 26119.3   3403.9   7.4249 26340.2
 18 10 2016  00 56  -15.5082 26119.6   3404.4   7.4261 26340.5
 18 10 2016  00 57  -15.5083 26119.1   3404.1   7.4255 26340.0
 18 10 2016  00 58  -15.5097 26118.4   3401.3   7.4196 26339.0
 18 10 2016  00 59  -15.5105 26117.2   3401.4   7.4203 26337.8
 18 10 2016  01 00  -15.5100 26117.1   3402.2   7.4220 26337.8
 18 10 2016  01 01  -15.5097 26117.8   3403.5   7.4247 26338.6
 18 10 2016  01 02  -15.5088 26118.1   3404.1   7.4258 26339.0
 18 10 2016  01 03  -15.5086 26117.8   3403.8   7.4252 26338.7
 18 10 2016  01 04  -15.5094 26117.4   3404.9   7.4276 26338.4
 18 10 2016  01 05  -15.5094 26118.0   3403.2   7.4239 26338.8
 18 10 2016  01 06  -15.5099 26118.1   3403.5   7.4245 26339.0
 18 10 2016  01 07  -15.5089 26118.8   3403.4   7.4240 26339.6
 18 10 2016  01 08  -15.5089 26119.1   3404.4   7.4262 26340.1
 18 10 2016  01 09  -15.5083 26120.3   3403.0   7.4227 26341.1
 18 10 2016  01 10  -15.5087 26120.3   3404.8   7.4267 26341.3
 18 10 2016  01 11  -15.5073 26121.3   3403.9   7.4244 26342.2
 18 10 2016  01 12  -15.5075 26122.0   3403.3   7.4231 26342.8
 18 10 2016  01 13  -15.5071 26122.2   3404.6   7.4256 26343.1
 18 10 2016  01 14  -15.5064 26121.9   3403.3   7.4230 26342.7
 18 10 2016  01 15  -15.5073 26121.2   3403.1   7.4227 26341.9
 18 10 2016  01 16  -15.5074 26120.9   3404.2   7.4251 26341.8
 18 10 2016  01 17  -15.5075 26121.2   3404.8   7.4265 26342.2
 18 10 2016  01 18  -15.5079 26120.9   3404.4   7.4256 26341.8
 18 10 2016  01 19  -15.5077 26120.7   3403.4   7.4236 26341.5
 18 10 2016  01 20  -15.5078 26121.5   3404.7   7.4260 26342.4
 18 10 2016  01 21  -15.5086 26120.3   3403.9   7.4247 26341.2
 18 10 2016  01 22  -15.5070 26121.7   3403.9   7.4243 26342.5
 18 10 2016  01 23  -15.5079 26121.5   3404.4   7.4254 26342.4
 18 10 2016  01 24  -15.5076 26122.8   3404.3   7.4248 26343.7
 18 10 2016  01 25  -15.5073 26122.7   3405.1   7.4266 26343.7
 18 10 2016  01 26  -15.5059 26124.5   3407.2   7.4307 26345.8
 18 10 2016  01 27  -15.5068 26125.1   3404.7   7.4251 26346.0
 18 10 2016  01 28  -15.5064 26125.3   3405.9   7.4276 26346.4
 18 10 2016  01 29  -15.5064 26125.3   3405.8   7.4274 26346.3
 18 10 2016  01 30  -15.5062 26125.5   3405.5   7.4268 26346.5
 18 10 2016  01 31  -15.5064 26126.0   3406.4   7.4284 26347.2
 18 10 2016  01 32  -15.5062 26126.7   3405.0   7.4253 26347.6
 18 10 2016  01 33  -15.5071 26126.9   3403.9   7.4228 26347.7
 18 10 2016  01 34  -15.5048 26127.8   3405.3   7.4257 26348.8
 18 10 2016  01 35  -15.5062 26127.6   3404.4   7.4237 26348.5
 18 10 2016  01 36  -15.5056 26127.8   3405.5   7.4261 26348.8
 18 10 2016  01 37  -15.5064 26127.4   3404.4   7.4238 26348.3
 18 10 2016  01 38  -15.5054 26128.1   3405.1   7.4252 26349.0
 18 10 2016  01 39  -15.5062 26128.6   3404.8   7.4243 26349.5
 18 10 2016  01 40  -15.5054 26129.2   3405.6   7.4260 26350.2
 18 10 2016  01 41  -15.5057 26129.5   3405.2   7.4249 26350.5
 18 10 2016  01 42  -15.5068 26129.7   3404.8   7.4240 26350.6
 18 10 2016  01 43  -15.5057 26130.3   3405.4   7.4252 26351.2
 18 10 2016  01 44  -15.5054 26130.5   3406.6   7.4276 26351.6
 18 10 2016  01 45  -15.5058 26131.6   3406.0   7.4261 26352.7
 18 10 2016  01 46  -15.5076 26131.3   3404.9   7.4238 26352.2
 18 10 2016  01 47  -15.5062 26131.7   3406.9   7.4280 26352.9
 18 10 2016  01 48  -15.5076 26131.9   3403.3   7.4201 26352.6
 18 10 2016  01 49  -15.5069 26131.5   3405.4   7.4248 26352.4
 18 10 2016  01 50  -15.5071 26131.7   3403.9   7.4215 26352.5
 18 10 2016  01 51  -15.5078 26131.3   3403.5   7.4207 26352.0
 18 10 2016  01 52  -15.5067 26131.4   3404.5   7.4229 26352.3
 18 10 2016  01 53  -15.5066 26131.6   3404.1   7.4220 26352.4
 18 10 2016  01 54  -15.5081 26130.9   3403.8   7.4215 26351.6
 18 10 2016  01 55  -15.5075 26130.8   3405.0   7.4242 26351.7
 18 10 2016  01 56  -15.5071 26130.5   3404.9   7.4240 26351.4
 18 10 2016  01 57  -15.5078 26130.0   3403.9   7.4221 26350.8
 18 10 2016  01 58  -15.5084 26129.5   3404.8   7.4242 26350.4
 18 10 2016  01 59  -15.5081 26129.5   3404.9   7.4243 26350.4
 18 10 2016  02 00  -15.5086 26129.3   3403.8   7.4220 26350.0
 18 10 2016  02 01  -15.5072 26129.3   3404.5   7.4234 26350.2
 18 10 2016  02 02  -15.5085 26128.5   3404.8   7.4244 26349.4
 18 10 2016  02 03  -15.5084 26128.6   3404.4   7.4235 26349.4
 18 10 2016  02 04  -15.5077 26129.0   3405.2   7.4250 26349.9
 18 10 2016  02 05  -15.5085 26129.6   3403.2   7.4205 26350.3
 18 10 2016  02 06  -15.5092 26129.3   3403.6   7.4216 26350.0
 18 10 2016  02 07  -15.5083 26129.3   3404.0   7.4223 26350.0
 18 10 2016  02 08  -15.5094 26128.6   3403.3   7.4211 26349.3
 18 10 2016  02 09  -15.5095 26128.1   3403.2   7.4210 26348.8
 18 10 2016  02 10  -15.5082 26127.9   3404.0   7.4228 26348.7
 18 10 2016  02 11  -15.5082 26127.4   3404.1   7.4231 26348.2
 18 10 2016  02 12  -15.5087 26126.9   3404.5   7.4241 26347.7
 18 10 2016  02 13  -15.5097 26126.4   3404.6   7.4244 26347.3
 18 10 2016  02 14  -15.5105 26125.6   3403.0   7.4212 26346.3
 18 10 2016  02 15  -15.5098 26125.3   3402.9   7.4211 26346.0
 18 10 2016  02 16  -15.5100 26125.0   3402.9   7.4212 26345.7
 18 10 2016  02 17  -15.5094 26125.1   3402.2   7.4198 26345.7
 18 10 2016  02 18  -15.5085 26125.6   3402.6   7.4205 26346.2
 18 10 2016  02 19  -15.5095 26125.7   3404.6   7.4247 26346.6
 18 10 2016  02 20  -15.5097 26126.9   3403.3   7.4217 26347.6
 18 10 2016  02 21  -15.5073 26128.3   3405.0   7.4248 26349.3
 18 10 2016  02 22  -15.5073 26129.1   3403.7   7.4219 26349.9
 18 10 2016  02 23  -15.5061 26129.4   3405.5   7.4255 26350.4
 18 10 2016  02 24  -15.5061 26130.0   3405.9   7.4263 26351.1
 18 10 2016  02 25  -15.5059 26130.5   3404.4   7.4229 26351.3
 18 10 2016  02 26  -15.5062 26130.2   3406.5   7.4275 26351.3
 18 10 2016  02 27  -15.5070 26130.6   3403.7   7.4214 26351.4
 18 10 2016  02 28  -15.5059 26131.5   3404.3   7.4225 26352.3
 18 10 2016  02 29  -15.5052 26132.3   3404.5   7.4227 26353.2
 18 10 2016  02 30  -15.5066 26132.1   3404.2   7.4220 26352.9
 18 10 2016  02 31  -15.5053 26132.8   3404.7   7.4230 26353.7
 18 10 2016  02 32  -15.5063 26132.7   3404.0   7.4215 26353.5
 18 10 2016  02 33  -15.5063 26132.5   3404.9   7.4234 26353.4
 18 10 2016  02 34  -15.5052 26132.9   3406.0   7.4257 26354.0
 18 10 2016  02 35  -15.5059 26132.9   3405.5   7.4247 26353.8
 18 10 2016  02 36  -15.5052 26133.5   3403.4   7.4199 26354.2
 18 10 2016  02 37  -15.5058 26133.5   3403.5   7.4202 26354.2
 18 10 2016  02 38  -15.5053 26133.3   3404.2   7.4217 26354.1
 18 10 2016  02 39  -15.5059 26133.0   3404.6   7.4228 26353.8
 18 10 2016  02 40  -15.5061 26132.7   3403.8   7.4211 26353.5
 18 10 2016  02 41  -15.5051 26132.7   3404.3   7.4221 26353.5
 18 10 2016  02 42  -15.5047 26132.7   3405.0   7.4237 26353.6
 18 10 2016  02 43  -15.5069 26132.7   3403.4   7.4202 26353.4
 18 10 2016  02 44  -15.5060 26132.8   3403.3   7.4200 26353.5
 18 10 2016  02 45  -15.5054 26132.6   3404.6   7.4228 26353.5
 18 10 2016  02 46  -15.5057 26132.9   3404.8   7.4232 26353.8
 18 10 2016  02 47  -15.5056 26132.7   3404.5   7.4226 26353.6
 18 10 2016  02 48  -15.5059 26132.5   3404.6   7.4229 26353.4
 18 10 2016  02 49  -15.5063 26132.1   3404.4   7.4224 26352.9
 18 10 2016  02 50  -15.5067 26131.8   3404.0   7.4216 26352.6
 18 10 2016  02 51  -15.5066 26131.7   3404.4   7.4225 26352.5
 18 10 2016  02 52  -15.5066 26131.1   3404.0   7.4218 26351.9
 18 10 2016  02 53  -15.5070 26129.9   3403.6   7.4214 26350.7
 18 10 2016  02 54  -15.5071 26129.6   3403.6   7.4216 26350.3
 18 10 2016  02 55  -15.5080 26129.0   3403.3   7.4211 26349.7
 18 10 2016  02 56  -15.5081 26128.5   3403.5   7.4215 26349.2
 18 10 2016  02 57  -15.5080 26128.1   3403.5   7.4217 26348.8
 18 10 2016  02 58  -15.5091 26127.5   3404.0   7.4229 26348.3
 18 10 2016  02 59  -15.5084 26127.7   3403.9   7.4227 26348.5
 18 10 2016  03 00  -15.5090 26127.5   3403.7   7.4224 26348.3
 18 10 2016  03 01  -15.5090 26127.3   3403.9   7.4228 26348.1
 18 10 2016  03 02  -15.5083 26126.7   3403.6   7.4223 26347.5
 18 10 2016  03 03  -15.5070 26126.2   3403.8   7.4229 26347.0
 18 10 2016  03 04  -15.5063 26125.9   3404.4   7.4243 26346.8
 18 10 2016  03 05  -15.5080 26125.1   3403.6   7.4226 26345.9
 18 10 2016  03 06  -15.5070 26125.2   3404.4   7.4245 26346.1
 18 10 2016  03 07  -15.5088 26124.7   3403.0   7.4216 26345.5
 18 10 2016  03 08  -15.5086 26124.1   3404.4   7.4247 26345.0
 18 10 2016  03 09  -15.5078 26124.0   3403.6   7.4230 26344.8
 18 10 2016  03 10  -15.5081 26124.0   3404.2   7.4243 26344.9
 18 10 2016  03 11  -15.5080 26124.4   3403.9   7.4235 26345.2
 18 10 2016  03 12  -15.5077 26124.6   3403.8   7.4233 26345.4
 18 10 2016  03 13  -15.5069 26124.2   3404.2   7.4242 26345.0
 18 10 2016  03 14  -15.5065 26123.9   3405.5   7.4271 26345.0
 18 10 2016  03 15  -15.5085 26123.7   3403.2   7.4222 26344.5
 18 10 2016  03 16  -15.5080 26123.6   3404.5   7.4251 26344.5
 18 10 2016  03 17  -15.5101 26123.3   3402.1   7.4199 26343.9
 18 10 2016  03 18  -15.5102 26123.3   3402.4   7.4206 26343.9
 18 10 2016  03 19  -15.5095 26123.5   3403.5   7.4229 26344.3
 18 10 2016  03 20  -15.5082 26123.5   3403.8   7.4237 26344.3
 18 10 2016  03 21  -15.5096 26122.9   3402.1   7.4201 26343.5
 18 10 2016  03 22  -15.5103 26122.7   3402.7   7.4214 26343.4
 18 10 2016  03 23  -15.5098 26122.5   3404.3   7.4249 26343.4
 18 10 2016  03 24  -15.5098 26122.1   3405.4   7.4274 26343.1
 18 10 2016  03 25  -15.5106 26122.3   3402.6   7.4213 26343.0
 18 10 2016  03 26  -15.5095 26122.2   3404.9   7.4264 26343.1
 18 10 2016  03 27  -15.5099 26122.1   3404.4   7.4253 26343.0
 18 10 2016  03 28  -15.5113 26122.1   3402.2   7.4206 26342.7
 18 10 2016  03 29  -15.5103 26121.8   3403.0   7.4225 26342.5
 18 10 2016  03 30  -15.5112 26121.0   3403.2   7.4230 26341.8
 18 10 2016  03 31  -15.5116 26121.0   3403.1   7.4228 26341.7
 18 10 2016  03 32  -15.5107 26121.3   3403.7   7.4240 26342.1
 18 10 2016  03 33  -15.5118 26120.9   3403.0   7.4226 26341.7
 18 10 2016  03 34  -15.5108 26120.7   3403.4   7.4235 26341.5
 18 10 2016  03 35  -15.5110 26120.0   3403.2   7.4233 26340.8
 18 10 2016  03 36  -15.5097 26119.6   3405.2   7.4277 26340.6
 18 10 2016  03 37  -15.5091 26119.7   3405.0   7.4273 26340.7
 18 10 2016  03 38  -15.5077 26120.0   3404.9   7.4271 26341.0
 18 10 2016  03 39  -15.5084 26120.1   3402.9   7.4227 26340.8
 18 10 2016  03 40  -15.5094 26119.5   3405.0   7.4273 26340.5
 18 10 2016  03 41  -15.5082 26119.9   3405.8   7.4289 26341.0
 18 10 2016  03 42  -15.5099 26119.7   3403.0   7.4230 26340.5
 18 10 2016  03 43  -15.5080 26119.6   3404.6   7.4264 26340.6
 18 10 2016  03 44  -15.5074 26119.6   3404.4   7.4261 26340.5
 18 10 2016  03 45  -15.5075 26119.1   3405.7   7.4289 26340.2
 18 10 2016  03 46  -15.5074 26119.4   3404.4   7.4261 26340.3
 18 10 2016  03 47  -15.5081 26119.5   3402.5   7.4220 26340.2
 18 10 2016  03 48  -15.5086 26119.2   3402.5   7.4220 26339.9
 18 10 2016  03 49  -15.5082 26119.0   3402.0   7.4211 26339.6
 18 10 2016  03 50  -15.5065 26119.0   3403.3   7.4237 26339.8
 18 10 2016  03 51  -15.5068 26118.1   3404.0   7.4255 26339.0
 18 10 2016  03 52  -15.5066 26117.4   3402.0   7.4213 26338.0
 18 10 2016  03 53  -15.5050 26117.1   3402.4   7.4224 26337.8
 18 10 2016  03 54  -15.5043 26117.6   3404.1   7.4259 26338.5
 18 10 2016  03 55  -15.5069 26117.4   3402.5   7.4226 26338.1
 18 10 2016  03 56  -15.5072 26116.9   3402.7   7.4230 26337.6
 18 10 2016  03 57  -15.5042 26116.7   3404.8   7.4276 26337.7
 18 10 2016  03 58  -15.5036 26116.4   3405.1   7.4285 26337.4
 18 10 2016  03 59  -15.5047 26116.8   3402.5   7.4226 26337.5
 18 10 2016  04 00  -15.5052 26117.2   3404.1   7.4261 26338.1
 18 10 2016  04 01  -15.5052 26117.7   3404.6   7.4269 26338.6
 18 10 2016  04 02  -15.5063 26118.1   3403.9   7.4253 26339.0
 18 10 2016  04 03  -15.5064 26118.4   3403.7   7.4248 26339.2
 18 10 2016  04 04  -15.5064 26118.6   3404.4   7.4264 26339.5
 18 10 2016  04 05  -15.5071 26119.0   3403.7   7.4246 26339.9
 18 10 2016  04 06  -15.5081 26119.2   3403.8   7.4247 26340.1
 18 10 2016  04 07  -15.5082 26119.3   3404.8   7.4270 26340.3
 18 10 2016  04 08  -15.5077 26119.9   3404.1   7.4253 26340.7
 18 10 2016  04 09  -15.5078 26119.9   3403.8   7.4245 26340.8
 18 10 2016  04 10  -15.5092 26119.6   3404.1   7.4254 26340.5
 18 10 2016  04 11  -15.5097 26119.7   3402.9   7.4228 26340.5
 18 10 2016  04 12  -15.5101 26119.7   3402.7   7.4223 26340.4
 18 10 2016  04 13  -15.5089 26120.0   3402.5   7.4218 26340.6
 18 10 2016  04 14  -15.5088 26120.0   3402.4   7.4216 26340.7
 18 10 2016  04 15  -15.5097 26120.0   3401.5   7.4197 26340.5
 18 10 2016  04 16  -15.5096 26119.5   3402.0   7.4209 26340.1
 18 10 2016  04 17  -15.5101 26118.3   3403.4   7.4242 26339.1
 18 10 2016  04 18  -15.5098 26118.3   3402.0   7.4212 26338.9
 18 10 2016  04 19  -15.5109 26117.6   3400.4   7.4180 26338.0
 18 10 2016  04 20  -15.5106 26117.1   3402.5   7.4226 26337.8
 18 10 2016  04 21  -15.5086 26117.4   3403.7   7.4250 26338.3
 18 10 2016  04 22  -15.5102 26117.5   3401.9   7.4211 26338.1
 18 10 2016  04 23  -15.5095 26118.3   3402.7   7.4228 26339.0
 18 10 2016  04 24  -15.5112 26118.8   3401.6   7.4202 26339.4
 18 10 2016  04 25  -15.5102 26119.1   3403.8   7.4249 26340.0
 18 10 2016  04 26  -15.5104 26119.3   3402.6   7.4222 26340.0
 18 10 2016  04 27  -15.5095 26119.4   3403.5   7.4242 26340.2
 18 10 2016  04 28  -15.5096 26119.3   3402.9   7.4229 26340.1
 18 10 2016  04 29  -15.5095 26120.1   3403.3   7.4235 26340.8
 18 10 2016  04 30  -15.5100 26121.1   3404.1   7.4249 26342.0
 18 10 2016  04 31  -15.5101 26121.8   3404.3   7.4251 26342.7
 18 10 2016  04 32  -15.5100 26121.8   3403.7   7.4238 26342.6
 18 10 2016  04 33  -15.5107 26121.9   3403.3   7.4229 26342.7
 18 10 2016  04 34  -15.5103 26122.1   3403.4   7.4232 26342.9
 18 10 2016  04 35  -15.5102 26122.5   3403.6   7.4235 26343.3
 18 10 2016  04 36  -15.5100 26122.9   3403.7   7.4235 26343.7
 18 10 2016  04 37  -15.5108 26123.3   3402.9   7.4218 26344.0
 18 10 2016  04 38  -15.5113 26123.8   3402.6   7.4210 26344.4
 18 10 2016  04 39  -15.5120 26123.9   3404.8   7.4258 26344.8
 18 10 2016  04 40  -15.5116 26124.5   3405.4   7.4269 26345.5
 18 10 2016  04 41  -15.5117 26124.9   3405.6   7.4271 26346.0
 18 10 2016  04 42  -15.5115 26125.3   3405.8   7.4275 26346.3
 18 10 2016  04 43  -15.5111 26125.5   3404.6   7.4248 26346.4
 18 10 2016  04 44  -15.5126 26125.3   3402.2   7.4196 26345.9
 18 10 2016  04 45  -15.5118 26125.4   3403.0   7.4213 26346.1
 18 10 2016  04 46  -15.5129 26124.6   3401.9   7.4192 26345.2
 18 10 2016  04 47  -15.5131 26123.5   3402.2   7.4201 26344.1
 18 10 2016  04 48  -15.5132 26122.3   3402.7   7.4216 26343.0
 18 10 2016  04 49  -15.5117 26122.1   3402.3   7.4207 26342.7
 18 10 2016  04 50  -15.5120 26121.5   3402.0   7.4204 26342.1
 18 10 2016  04 51  -15.5119 26121.1   3401.6   7.4195 26341.7
 18 10 2016  04 52  -15.5122 26120.4   3402.3   7.4213 26341.0
 18 10 2016  04 53  -15.5120 26119.8   3401.8   7.4203 26340.4
 18 10 2016  04 54  -15.5123 26119.1   3401.6   7.4201 26339.7
 18 10 2016  04 55  -15.5124 26118.2   3401.3   7.4196 26338.8
 18 10 2016  04 56  -15.5131 26117.4   3401.3   7.4200 26338.0
 18 10 2016  04 57  -15.5112 26117.7   3401.7   7.4208 26338.3
 18 10 2016  04 58  -15.5109 26117.1   3403.3   7.4243 26337.9
 18 10 2016  04 59  -15.5125 26116.7   3401.9   7.4215 26337.3
 18 10 2016  05 00  -15.5113 26117.4   3401.0   7.4193 26337.9
 18 10 2016  05 01  -15.5116 26117.1   3400.6   7.4186 26337.5
 18 10 2016  05 02  -15.5105 26117.0   3401.9   7.4213 26337.6
 18 10 2016  05 03  -15.5113 26116.9   3401.0   7.4194 26337.4
 18 10 2016  05 04  -15.5117 26116.8   3400.9   7.4192 26337.3
 18 10 2016  05 05  -15.5114 26116.7   3402.6   7.4230 26337.5
 18 10 2016  05 06  -15.5114 26117.0   3403.2   7.4241 26337.8
 18 10 2016  05 07  -15.5132 26117.0   3402.0   7.4216 26337.6
 18 10 2016  05 08  -15.5122 26117.4   3403.7   7.4251 26338.3
 18 10 2016  05 09  -15.5124 26117.6   3403.5   7.4247 26338.5
