Manaus - AM                    UNIVAP-03  <288> 1 Min. Reported data

 DD MM YYYY  HH MM   D(Deg)  H(nT)   Z(nT)   I(Deg)   F(nT)

 14 10 2016  00 00  -15.5454 26020.6   3409.0   7.4638 26243.0
 14 10 2016  00 01  -15.5449 26021.7   3409.0   7.4635 26244.0
 14 10 2016  00 02  -15.5457 26022.5   3408.3   7.4619 26244.8
 14 10 2016  00 03  -15.5456 26023.4   3408.2   7.4615 26245.6
 14 10 2016  00 04  -15.5452 26024.3   3408.0   7.4608 26246.5
 14 10 2016  00 05  -15.5447 26025.0   3408.4   7.4614 26247.3
 14 10 2016  00 06  -15.5447 26025.6   3408.3   7.4609 26247.8
 14 10 2016  00 07  -15.5445 26026.2   3407.7   7.4594 26248.4
 14 10 2016  00 08  -15.5443 26026.6   3407.6   7.4591 26248.8
 14 10 2016  00 09  -15.5440 26027.0   3407.9   7.4598 26249.2
 14 10 2016  00 10  -15.5441 26027.7   3407.9   7.4596 26249.9
 14 10 2016  00 11  -15.5436 26028.4   3408.1   7.4598 26250.6
 14 10 2016  00 12  -15.5443 26028.8   3407.4   7.4581 26250.9
 14 10 2016  00 13  -15.5438 26029.5   3407.6   7.4583 26251.6
 14 10 2016  00 14  -15.5434 26030.2   3407.7   7.4583 26252.3
 14 10 2016  00 15  -15.5434 26030.8   3407.9   7.4586 26253.0
 14 10 2016  00 16  -15.5439 26031.6   3407.5   7.4576 26253.7
 14 10 2016  00 17  -15.5447 26032.0   3407.2   7.4568 26254.1
 14 10 2016  00 18  -15.5439 26032.9   3407.3   7.4567 26255.0
 14 10 2016  00 19  -15.5441 26033.3   3407.7   7.4576 26255.3
 14 10 2016  00 20  -15.5441 26033.9   3406.9   7.4555 26255.9
 14 10 2016  00 21  -15.5443 26034.0   3407.2   7.4561 26256.1
 14 10 2016  00 22  -15.5441 26034.0   3407.4   7.4566 26256.0
 14 10 2016  00 23  -15.5449 26034.2   3406.6   7.4548 26256.1
 14 10 2016  00 24  -15.5449 26034.4   3406.5   7.4547 26256.3
 14 10 2016  00 25  -15.5452 26034.6   3406.4   7.4543 26256.5
 14 10 2016  00 26  -15.5456 26034.5   3406.3   7.4542 26256.4
 14 10 2016  00 27  -15.5453 26035.0   3406.3   7.4540 26256.9
 14 10 2016  00 28  -15.5453 26035.2   3406.3   7.4538 26257.1
 14 10 2016  00 29  -15.5446 26035.4   3407.0   7.4553 26257.4
 14 10 2016  00 30  -15.5446 26035.7   3407.0   7.4552 26257.7
 14 10 2016  00 31  -15.5451 26036.0   3406.1   7.4533 26257.8
 14 10 2016  00 32  -15.5450 26036.0   3406.5   7.4541 26257.9
 14 10 2016  00 33  -15.5457 26036.2   3405.7   7.4523 26258.0
 14 10 2016  00 34  -15.5457 26036.1   3406.3   7.4537 26258.0
 14 10 2016  00 35  -15.5460 26036.3   3406.2   7.4534 26258.1
 14 10 2016  00 36  -15.5469 26035.9   3405.9   7.4529 26257.8
 14 10 2016  00 37  -15.5468 26036.1   3405.1   7.4511 26257.8
 14 10 2016  00 38  -15.5460 26036.0   3405.6   7.4522 26257.8
 14 10 2016  00 39  -15.5448 26036.0   3407.1   7.4554 26257.9
 14 10 2016  00 40  -15.5443 26036.2   3405.9   7.4527 26258.0
 14 10 2016  00 41  -15.5448 26036.3   3404.8   7.4503 26258.0
 14 10 2016  00 42  -15.5454 26036.2   3405.3   7.4515 26257.9
 14 10 2016  00 43  -15.5457 26035.8   3405.2   7.4513 26257.5
 14 10 2016  00 44  -15.5452 26035.9   3405.0   7.4509 26257.6
 14 10 2016  00 45  -15.5448 26035.5   3405.1   7.4512 26257.3
 14 10 2016  00 46  -15.5439 26035.4   3404.9   7.4509 26257.1
 14 10 2016  00 47  -15.5421 26035.5   3405.9   7.4529 26257.3
 14 10 2016  00 48  -15.5436 26035.3   3404.4   7.4498 26256.9
 14 10 2016  00 49  -15.5420 26035.4   3404.5   7.4501 26257.1
 14 10 2016  00 50  -15.5420 26035.4   3404.8   7.4507 26257.1
 14 10 2016  00 51  -15.5422 26035.1   3406.0   7.4533 26256.9
 14 10 2016  00 52  -15.5435 26034.9   3404.6   7.4502 26256.6
 14 10 2016  00 53  -15.5430 26035.1   3405.5   7.4522 26256.9
 14 10 2016  00 54  -15.5408 26035.7   3405.5   7.4520 26257.5
 14 10 2016  00 55  -15.5421 26035.4   3404.2   7.4493 26257.0
 14 10 2016  00 56  -15.5417 26035.3   3404.9   7.4509 26257.0
 14 10 2016  00 57  -15.5408 26035.6   3405.5   7.4520 26257.4
 14 10 2016  00 58  -15.5409 26035.6   3405.9   7.4530 26257.5
 14 10 2016  00 59  -15.5406 26036.0   3405.9   7.4529 26257.8
 14 10 2016  01 00  -15.5415 26036.0   3405.5   7.4519 26257.8
 14 10 2016  01 01  -15.5417 26036.2   3405.3   7.4514 26258.0
 14 10 2016  01 02  -15.5412 26036.7   3405.4   7.4515 26258.5
 14 10 2016  01 03  -15.5410 26037.3   3405.4   7.4514 26259.0
 14 10 2016  01 04  -15.5399 26038.0   3405.8   7.4521 26259.8
 14 10 2016  01 05  -15.5414 26038.0   3405.3   7.4509 26259.8
 14 10 2016  01 06  -15.5394 26039.0   3406.6   7.4534 26260.9
 14 10 2016  01 07  -15.5390 26040.0   3405.7   7.4514 26261.8
 14 10 2016  01 08  -15.5392 26040.3   3405.4   7.4506 26262.0
 14 10 2016  01 09  -15.5371 26041.3   3406.5   7.4526 26263.1
 14 10 2016  01 10  -15.5348 26044.0   3407.0   7.4529 26265.9
 14 10 2016  01 11  -15.5343 26045.8   3409.0   7.4567 26268.0
 14 10 2016  01 12  -15.5331 26050.8   3410.2   7.4579 26273.1
 14 10 2016  01 13  -15.5285 26057.5   3413.6   7.4634 26280.1
 14 10 2016  01 14  -15.5258 26064.1   3414.5   7.4635 26286.8
 14 10 2016  01 15  -15.5220 26070.3   3417.1   7.4672 26293.3
 14 10 2016  01 16  -15.5223 26074.0   3415.0   7.4618 26296.7
 14 10 2016  01 17  -15.5208 26077.5   3415.5   7.4619 26300.2
 14 10 2016  01 18  -15.5207 26079.8   3415.3   7.4608 26302.5
 14 10 2016  01 19  -15.5215 26081.6   3412.6   7.4544 26304.0
 14 10 2016  01 20  -15.5217 26083.3   3412.6   7.4539 26305.6
 14 10 2016  01 21  -15.5242 26085.4   3412.0   7.4521 26307.6
 14 10 2016  01 22  -15.5279 26086.7   3410.7   7.4489 26308.8
 14 10 2016  01 23  -15.5305 26087.4   3409.4   7.4459 26309.2
 14 10 2016  01 24  -15.5315 26088.8   3411.0   7.4490 26310.9
 14 10 2016  01 25  -15.5346 26089.7   3408.9   7.4441 26311.4
 14 10 2016  01 26  -15.5374 26090.0   3407.6   7.4413 26311.6
 14 10 2016  01 27  -15.5398 26089.5   3407.1   7.4404 26311.0
 14 10 2016  01 28  -15.5411 26088.9   3406.7   7.4396 26310.4
 14 10 2016  01 29  -15.5420 26087.8   3405.2   7.4366 26309.1
 14 10 2016  01 30  -15.5432 26086.0   3404.6   7.4359 26307.2
 14 10 2016  01 31  -15.5437 26084.5   3403.1   7.4332 26305.5
 14 10 2016  01 32  -15.5432 26083.3   3403.1   7.4334 26304.4
 14 10 2016  01 33  -15.5432 26082.0   3402.5   7.4325 26303.0
 14 10 2016  01 34  -15.5438 26080.8   3402.3   7.4324 26301.8
 14 10 2016  01 35  -15.5443 26079.7   3403.5   7.4353 26300.9
 14 10 2016  01 36  -15.5436 26079.2   3402.0   7.4322 26300.2
 14 10 2016  01 37  -15.5419 26078.1   3403.9   7.4365 26299.3
 14 10 2016  01 38  -15.5404 26077.2   3403.0   7.4349 26298.3
 14 10 2016  01 39  -15.5380 26076.5   3402.7   7.4345 26297.6
 14 10 2016  01 40  -15.5359 26075.4   3402.6   7.4345 26296.4
 14 10 2016  01 41  -15.5340 26075.1   3402.5   7.4344 26296.2
 14 10 2016  01 42  -15.5324 26075.0   3402.8   7.4351 26296.1
 14 10 2016  01 43  -15.5287 26075.1   3405.1   7.4401 26296.5
 14 10 2016  01 44  -15.5275 26075.2   3403.9   7.4374 26296.4
 14 10 2016  01 45  -15.5273 26075.4   3402.7   7.4349 26296.5
 14 10 2016  01 46  -15.5259 26074.9   3404.5   7.4388 26296.2
 14 10 2016  01 47  -15.5265 26074.6   3403.2   7.4361 26295.8
 14 10 2016  01 48  -15.5267 26074.1   3403.9   7.4378 26295.3
 14 10 2016  01 49  -15.5256 26073.9   3403.7   7.4373 26295.1
 14 10 2016  01 50  -15.5254 26073.6   3402.0   7.4337 26294.6
 14 10 2016  01 51  -15.5257 26072.9   3401.6   7.4331 26293.8
 14 10 2016  01 52  -15.5259 26072.4   3402.0   7.4342 26293.4
 14 10 2016  01 53  -15.5258 26071.9   3402.7   7.4357 26293.0
 14 10 2016  01 54  -15.5251 26071.1   3403.0   7.4367 26292.3
 14 10 2016  01 55  -15.5246 26070.1   3402.0   7.4348 26291.1
 14 10 2016  01 56  -15.5239 26069.0   3403.0   7.4372 26290.1
 14 10 2016  01 57  -15.5241 26068.0   3402.9   7.4373 26289.2
 14 10 2016  01 58  -15.5259 26067.4   3402.3   7.4362 26288.5
 14 10 2016  01 59  -15.5269 26067.2   3402.0   7.4356 26288.2
 14 10 2016  02 00  -15.5285 26066.6   3402.1   7.4359 26287.7
 14 10 2016  02 01  -15.5286 26066.3   3403.2   7.4385 26287.5
 14 10 2016  02 02  -15.5309 26065.1   3403.6   7.4396 26286.4
 14 10 2016  02 03  -15.5320 26064.5   3402.1   7.4365 26285.6
 14 10 2016  02 04  -15.5329 26064.0   3401.9   7.4363 26285.0
 14 10 2016  02 05  -15.5329 26063.5   3402.6   7.4379 26284.7
 14 10 2016  02 06  -15.5334 26063.4   3403.3   7.4395 26284.6
 14 10 2016  02 07  -15.5345 26063.5   3402.1   7.4368 26284.6
 14 10 2016  02 08  -15.5354 26063.4   3403.1   7.4390 26284.7
 14 10 2016  02 09  -15.5372 26063.6   3403.8   7.4405 26284.9
 14 10 2016  02 10  -15.5390 26064.2   3402.5   7.4375 26285.3
 14 10 2016  02 11  -15.5408 26064.2   3402.5   7.4375 26285.3
 14 10 2016  02 12  -15.5408 26063.9   3404.1   7.4411 26285.3
 14 10 2016  02 13  -15.5413 26063.8   3404.6   7.4421 26285.2
 14 10 2016  02 14  -15.5426 26064.1   3404.2   7.4411 26285.5
 14 10 2016  02 15  -15.5432 26064.8   3404.4   7.4414 26286.2
 14 10 2016  02 16  -15.5455 26065.1   3404.4   7.4413 26286.5
 14 10 2016  02 17  -15.5452 26065.7   3404.6   7.4416 26287.1
 14 10 2016  02 18  -15.5461 26065.8   3405.2   7.4429 26287.3
 14 10 2016  02 19  -15.5469 26065.8   3405.2   7.4429 26287.3
 14 10 2016  02 20  -15.5475 26066.1   3404.4   7.4412 26287.5
 14 10 2016  02 21  -15.5475 26066.1   3404.4   7.4412 26287.5
 14 10 2016  02 22  -15.5485 26065.9   3405.6   7.4436 26287.4
 14 10 2016  02 23  -15.5503 26065.9   3404.0   7.4402 26287.2
 14 10 2016  02 24  -15.5496 26066.3   3405.2   7.4427 26287.7
 14 10 2016  02 25  -15.5505 26066.4   3405.4   7.4432 26287.9
 14 10 2016  02 26  -15.5508 26066.4   3404.8   7.4418 26287.8
 14 10 2016  02 27  -15.5508 26066.1   3405.1   7.4425 26287.6
 14 10 2016  02 28  -15.5506 26066.2   3404.7   7.4417 26287.7
 14 10 2016  02 29  -15.5507 26066.5   3403.2   7.4385 26287.7
 14 10 2016  02 30  -15.5501 26066.5   3404.6   7.4414 26287.9
 14 10 2016  02 31  -15.5514 26066.3   3403.9   7.4399 26287.6
 14 10 2016  02 32  -15.5511 26066.6   3404.3   7.4407 26287.9
 14 10 2016  02 33  -15.5507 26066.8   3405.0   7.4421 26288.2
 14 10 2016  02 34  -15.5506 26067.0   3404.8   7.4418 26288.4
 14 10 2016  02 35  -15.5508 26067.3   3404.0   7.4400 26288.7
 14 10 2016  02 36  -15.5511 26067.6   3404.9   7.4417 26289.0
 14 10 2016  02 37  -15.5511 26067.8   3404.9   7.4417 26289.3
 14 10 2016  02 38  -15.5504 26067.9   3404.7   7.4411 26289.3
 14 10 2016  02 39  -15.5492 26067.9   3404.3   7.4405 26289.2
 14 10 2016  02 40  -15.5487 26067.8   3404.7   7.4413 26289.2
 14 10 2016  02 41  -15.5491 26067.9   3404.5   7.4408 26289.3
 14 10 2016  02 42  -15.5493 26067.9   3404.8   7.4414 26289.4
 14 10 2016  02 43  -15.5502 26067.8   3403.9   7.4395 26289.1
 14 10 2016  02 44  -15.5492 26068.1   3403.7   7.4390 26289.4
 14 10 2016  02 45  -15.5487 26068.0   3404.3   7.4402 26289.3
 14 10 2016  02 46  -15.5466 26068.1   3404.2   7.4400 26289.5
 14 10 2016  02 47  -15.5454 26067.9   3406.1   7.4443 26289.4
 14 10 2016  02 48  -15.5443 26068.3   3405.5   7.4428 26289.8
 14 10 2016  02 49  -15.5436 26068.4   3405.2   7.4421 26289.8
 14 10 2016  02 50  -15.5434 26068.3   3404.6   7.4409 26289.7
 14 10 2016  02 51  -15.5426 26068.6   3405.3   7.4423 26290.0
 14 10 2016  02 52  -15.5427 26068.6   3404.2   7.4399 26289.9
 14 10 2016  02 53  -15.5408 26068.9   3404.3   7.4401 26290.3
 14 10 2016  02 54  -15.5400 26068.7   3404.4   7.4404 26290.0
 14 10 2016  02 55  -15.5396 26068.7   3403.7   7.4387 26290.0
 14 10 2016  02 56  -15.5387 26068.8   3404.4   7.4402 26290.2
 14 10 2016  02 57  -15.5393 26069.0   3404.0   7.4393 26290.3
 14 10 2016  02 58  -15.5394 26068.8   3403.9   7.4393 26290.1
 14 10 2016  02 59  -15.5376 26068.8   3404.0   7.4394 26290.1
 14 10 2016  03 00  -15.5370 26068.8   3403.9   7.4392 26290.1
 14 10 2016  03 01  -15.5362 26068.3   3403.7   7.4389 26289.6
 14 10 2016  03 02  -15.5344 26068.3   3404.5   7.4407 26289.6
 14 10 2016  03 03  -15.5343 26067.9   3402.8   7.4372 26289.1
 14 10 2016  03 04  -15.5329 26067.8   3404.6   7.4411 26289.2
 14 10 2016  03 05  -15.5323 26068.1   3403.7   7.4389 26289.4
 14 10 2016  03 06  -15.5350 26067.5   3402.0   7.4354 26288.6
 14 10 2016  03 07  -15.5341 26067.5   3401.9   7.4353 26288.5
 14 10 2016  03 08  -15.5346 26066.9   3403.0   7.4377 26288.1
 14 10 2016  03 09  -15.5338 26067.2   3404.2   7.4404 26288.5
 14 10 2016  03 10  -15.5351 26067.4   3402.0   7.4355 26288.5
 14 10 2016  03 11  -15.5349 26067.6   3402.6   7.4368 26288.7
 14 10 2016  03 12  -15.5367 26067.2   3402.5   7.4368 26288.3
 14 10 2016  03 13  -15.5383 26066.6   3403.9   7.4400 26287.9
 14 10 2016  03 14  -15.5367 26066.9   3403.9   7.4397 26288.3
 14 10 2016  03 15  -15.5371 26066.5   3404.1   7.4403 26287.9
 14 10 2016  03 16  -15.5366 26066.2   3405.0   7.4423 26287.7
 14 10 2016  03 17  -15.5375 26066.1   3404.8   7.4420 26287.6
 14 10 2016  03 18  -15.5383 26066.4   3402.8   7.4376 26287.6
 14 10 2016  03 19  -15.5382 26066.3   3403.7   7.4396 26287.6
 14 10 2016  03 20  -15.5388 26066.2   3403.9   7.4400 26287.5
 14 10 2016  03 21  -15.5386 26066.2   3403.7   7.4395 26287.5
 14 10 2016  03 22  -15.5382 26065.9   3404.9   7.4423 26287.4
 14 10 2016  03 23  -15.5377 26066.1   3404.2   7.4406 26287.4
 14 10 2016  03 24  -15.5388 26066.2   3403.7   7.4395 26287.4
 14 10 2016  03 25  -15.5389 26066.3   3404.4   7.4411 26287.7
 14 10 2016  03 26  -15.5396 26066.2   3403.9   7.4400 26287.6
 14 10 2016  03 27  -15.5400 26066.4   3403.8   7.4397 26287.7
 14 10 2016  03 28  -15.5407 26066.4   3404.1   7.4404 26287.8
 14 10 2016  03 29  -15.5410 26066.8   3404.4   7.4409 26288.2
 14 10 2016  03 30  -15.5419 26067.0   3404.3   7.4406 26288.4
 14 10 2016  03 31  -15.5429 26067.4   3404.6   7.4411 26288.8
 14 10 2016  03 32  -15.5443 26068.0   3404.6   7.4409 26289.3
 14 10 2016  03 33  -15.5454 26068.2   3404.7   7.4412 26289.6
 14 10 2016  03 34  -15.5470 26068.6   3404.7   7.4410 26290.0
 14 10 2016  03 35  -15.5476 26068.9   3404.8   7.4412 26290.3
 14 10 2016  03 36  -15.5478 26069.0   3406.2   7.4442 26290.6
 14 10 2016  03 37  -15.5499 26068.9   3404.8   7.4412 26290.3
 14 10 2016  03 38  -15.5486 26069.3   3404.6   7.4405 26290.7
 14 10 2016  03 39  -15.5498 26069.1   3403.9   7.4391 26290.3
 14 10 2016  03 40  -15.5504 26069.0   3402.9   7.4371 26290.1
 14 10 2016  03 41  -15.5493 26068.9   3404.8   7.4411 26290.3
 14 10 2016  03 42  -15.5495 26068.9   3404.6   7.4408 26290.3
 14 10 2016  03 43  -15.5491 26069.2   3404.0   7.4393 26290.5
 14 10 2016  03 44  -15.5498 26069.1   3403.8   7.4389 26290.4
 14 10 2016  03 45  -15.5488 26069.5   3404.6   7.4404 26290.9
 14 10 2016  03 46  -15.5490 26069.9   3405.3   7.4419 26291.3
 14 10 2016  03 47  -15.5495 26070.3   3404.5   7.4402 26291.7
 14 10 2016  03 48  -15.5500 26070.8   3405.0   7.4411 26292.2
 14 10 2016  03 49  -15.5503 26071.3   3405.2   7.4413 26292.7
 14 10 2016  03 50  -15.5511 26071.8   3404.3   7.4392 26293.1
 14 10 2016  03 51  -15.5511 26072.1   3404.6   7.4399 26293.5
 14 10 2016  03 52  -15.5509 26072.4   3404.7   7.4400 26293.7
 14 10 2016  03 53  -15.5505 26072.8   3404.6   7.4397 26294.2
 14 10 2016  03 54  -15.5507 26072.9   3404.9   7.4402 26294.3
 14 10 2016  03 55  -15.5503 26073.0   3405.8   7.4421 26294.5
 14 10 2016  03 56  -15.5507 26073.5   3404.2   7.4386 26294.8
 14 10 2016  03 57  -15.5517 26073.6   3405.6   7.4415 26295.0
 14 10 2016  03 58  -15.5507 26074.1   3406.1   7.4425 26295.7
 14 10 2016  03 59  -15.5516 26074.4   3404.6   7.4392 26295.8
 14 10 2016  04 00  -15.5500 26074.8   3404.9   7.4397 26296.2
 14 10 2016  04 01  -15.5507 26074.8   3403.4   7.4365 26296.0
 14 10 2016  04 02  -15.5496 26074.9   3403.0   7.4356 26296.1
 14 10 2016  04 03  -15.5488 26075.1   3403.4   7.4363 26296.3
 14 10 2016  04 04  -15.5476 26075.1   3405.5   7.4408 26296.6
 14 10 2016  04 05  -15.5452 26075.9   3405.2   7.4400 26297.3
 14 10 2016  04 06  -15.5458 26075.7   3403.9   7.4373 26296.9
 14 10 2016  04 07  -15.5455 26075.6   3404.5   7.4386 26296.9
 14 10 2016  04 08  -15.5449 26075.8   3405.3   7.4403 26297.2
 14 10 2016  04 09  -15.5449 26076.1   3404.8   7.4391 26297.5
 14 10 2016  04 10  -15.5465 26076.5   3403.3   7.4357 26297.7
 14 10 2016  04 11  -15.5463 26076.8   3405.5   7.4404 26298.3
 14 10 2016  04 12  -15.5458 26077.4   3403.9   7.4367 26298.6
 14 10 2016  04 13  -15.5476 26077.4   3402.7   7.4343 26298.4
 14 10 2016  04 14  -15.5459 26077.7   3404.8   7.4386 26299.0
 14 10 2016  04 15  -15.5465 26077.8   3403.5   7.4358 26299.0
 14 10 2016  04 16  -15.5458 26078.1   3404.5   7.4379 26299.4
 14 10 2016  04 17  -15.5456 26078.4   3404.1   7.4370 26299.6
 14 10 2016  04 18  -15.5448 26078.8   3404.3   7.4372 26300.0
 14 10 2016  04 19  -15.5460 26079.1   3402.5   7.4334 26300.1
 14 10 2016  04 20  -15.5470 26078.9   3403.5   7.4354 26300.1
 14 10 2016  04 21  -15.5467 26079.2   3404.1   7.4367 26300.4
 14 10 2016  04 22  -15.5469 26079.6   3403.7   7.4358 26300.8
 14 10 2016  04 23  -15.5475 26079.8   3403.8   7.4360 26301.0
 14 10 2016  04 24  -15.5475 26080.3   3402.6   7.4333 26301.3
 14 10 2016  04 25  -15.5467 26080.5   3403.7   7.4355 26301.7
 14 10 2016  04 26  -15.5468 26080.2   3404.5   7.4374 26301.5
 14 10 2016  04 27  -15.5478 26080.2   3402.9   7.4338 26301.2
 14 10 2016  04 28  -15.5462 26080.3   3403.9   7.4359 26301.4
 14 10 2016  04 29  -15.5462 26080.0   3403.3   7.4349 26301.1
 14 10 2016  04 30  -15.5459 26080.0   3402.9   7.4339 26301.1
 14 10 2016  04 31  -15.5444 26079.9   3404.6   7.4377 26301.2
 14 10 2016  04 32  -15.5441 26079.7   3404.6   7.4378 26301.0
 14 10 2016  04 33  -15.5441 26079.7   3403.4   7.4351 26300.8
 14 10 2016  04 34  -15.5436 26080.2   3401.9   7.4318 26301.1
 14 10 2016  04 35  -15.5446 26080.2   3402.1   7.4322 26301.2
 14 10 2016  04 36  -15.5434 26080.7   3403.0   7.4340 26301.8
 14 10 2016  04 37  -15.5444 26080.5   3403.9   7.4359 26301.7
 14 10 2016  04 38  -15.5433 26081.2   3404.9   7.4378 26302.5
 14 10 2016  04 39  -15.5430 26081.8   3404.8   7.4375 26303.1
 14 10 2016  04 40  -15.5424 26082.2   3405.0   7.4378 26303.5
 14 10 2016  04 41  -15.5435 26082.3   3404.0   7.4356 26303.5
 14 10 2016  04 42  -15.5424 26082.7   3404.4   7.4364 26304.0
 14 10 2016  04 43  -15.5420 26083.0   3403.2   7.4337 26304.1
 14 10 2016  04 44  -15.5415 26083.0   3403.4   7.4342 26304.1
 14 10 2016  04 45  -15.5410 26082.9   3403.8   7.4351 26304.1
 14 10 2016  04 46  -15.5405 26083.0   3403.5   7.4343 26304.1
 14 10 2016  04 47  -15.5399 26083.1   3403.2   7.4338 26304.2
 14 10 2016  04 48  -15.5392 26083.2   3403.6   7.4345 26304.3
 14 10 2016  04 49  -15.5394 26083.1   3402.6   7.4324 26304.1
 14 10 2016  04 50  -15.5385 26083.2   3401.5   7.4300 26304.1
 14 10 2016  04 51  -15.5381 26082.9   3402.9   7.4330 26303.9
 14 10 2016  04 52  -15.5372 26083.1   3404.1   7.4357 26304.3
 14 10 2016  04 53  -15.5380 26083.3   3402.5   7.4320 26304.3
 14 10 2016  04 54  -15.5389 26083.3   3402.5   7.4322 26304.3
 14 10 2016  04 55  -15.5372 26083.4   3404.4   7.4362 26304.6
 14 10 2016  04 56  -15.5384 26083.3   3402.4   7.4319 26304.3
 14 10 2016  04 57  -15.5387 26083.2   3402.2   7.4315 26304.2
 14 10 2016  04 58  -15.5387 26083.1   3402.5   7.4321 26304.1
 14 10 2016  04 59  -15.5388 26082.8   3403.0   7.4334 26303.8
 14 10 2016  05 00  -15.5392 26082.8   3402.7   7.4327 26303.8
 14 10 2016  05 01  -15.5401 26082.9   3402.5   7.4323 26303.9
 14 10 2016  05 02  -15.5403 26083.1   3402.8   7.4327 26304.1
 14 10 2016  05 03  -15.5406 26083.2   3403.1   7.4334 26304.2
 14 10 2016  05 04  -15.5411 26083.3   3401.7   7.4304 26304.2
 14 10 2016  05 05  -15.5408 26083.4   3403.2   7.4336 26304.5
 14 10 2016  05 06  -15.5415 26083.7   3403.2   7.4336 26304.7
 14 10 2016  05 07  -15.5425 26083.9   3403.3   7.4336 26305.0
 14 10 2016  05 08  -15.5429 26084.0   3403.6   7.4344 26305.1
 14 10 2016  05 09  -15.5433 26084.1   3402.4   7.4316 26305.1
