Manaus - AM                    UNIVAP-03  <287> 1 Min. Reported data

 DD MM YYYY  HH MM   D(Deg)  H(nT)   Z(nT)   I(Deg)   F(nT)

 13 10 2016  00 01  -15.4900 26151.9   3399.6   7.4066 26371.9
 13 10 2016  00 02  -15.4892 26151.6   3399.2   7.4058 26371.6
 13 10 2016  00 03  -15.4891 26151.0   3399.6   7.4069 26371.0
 13 10 2016  00 04  -15.4892 26151.0   3399.6   7.4068 26371.1
 13 10 2016  00 05  -15.4887 26151.5   3400.2   7.4079 26371.6
 13 10 2016  00 06  -15.4884 26151.8   3400.2   7.4079 26371.9
 13 10 2016  00 07  -15.4886 26151.8   3400.2   7.4080 26371.9
 13 10 2016  00 08  -15.4888 26151.4   3399.6   7.4068 26371.4
 13 10 2016  00 09  -15.4888 26150.6   3399.6   7.4070 26370.7
 13 10 2016  00 10  -15.4893 26150.5   3399.5   7.4067 26370.5
 13 10 2016  00 11  -15.4889 26150.8   3399.9   7.4075 26370.9
 13 10 2016  00 12  -15.4891 26151.3   3400.1   7.4079 26371.4
 13 10 2016  00 13  -15.4891 26151.9   3400.4   7.4083 26372.0
 13 10 2016  00 14  -15.4893 26151.9   3400.7   7.4091 26372.1
 13 10 2016  00 15  -15.4898 26151.3   3400.2   7.4080 26371.4
 13 10 2016  00 16  -15.4902 26150.8   3399.8   7.4073 26370.9
 13 10 2016  00 17  -15.4901 26150.8   3400.1   7.4080 26371.0
 13 10 2016  00 18  -15.4899 26151.2   3400.3   7.4084 26371.3
 13 10 2016  00 19  -15.4902 26151.3   3400.0   7.4076 26371.4
 13 10 2016  00 20  -15.4908 26150.7   3400.3   7.4084 26370.8
 13 10 2016  00 21  -15.4918 26150.0   3399.4   7.4068 26370.0
 13 10 2016  00 22  -15.4923 26149.8   3400.0   7.4080 26369.9
 13 10 2016  00 23  -15.4929 26149.6   3399.2   7.4065 26369.6
 13 10 2016  00 24  -15.4928 26149.5   3399.7   7.4075 26369.6
 13 10 2016  00 26  -15.4937 26148.5   3399.4   7.4071 26368.5
 13 10 2016  00 27  -15.4939 26148.1   3399.4   7.4072 26368.1
 13 10 2016  00 28  -15.4939 26147.2   3398.5   7.4055 26367.1
 13 10 2016  00 29  -15.4952 26146.1   3398.4   7.4056 26366.0
 13 10 2016  00 30  -15.4940 26146.4   3399.2   7.4072 26366.4
 13 10 2016  00 31  -15.4945 26145.8   3399.3   7.4077 26365.8
 13 10 2016  00 32  -15.4944 26144.9   3398.1   7.4054 26364.8
 13 10 2016  00 33  -15.4951 26143.9   3399.1   7.4078 26364.0
 13 10 2016  00 34  -15.4951 26143.8   3399.3   7.4081 26363.9
 13 10 2016  00 35  -15.4945 26143.1   3398.9   7.4075 26363.2
 13 10 2016  00 36  -15.4957 26141.3   3398.1   7.4064 26361.2
 13 10 2016  00 37  -15.4977 26138.5   3396.8   7.4043 26358.2
 13 10 2016  00 38  -15.4976 26137.1   3396.5   7.4041 26356.9
 13 10 2016  00 39  -15.4981 26136.5   3397.2   7.4057 26356.4
 13 10 2016  00 40  -15.4977 26136.4   3397.5   7.4065 26356.3
 13 10 2016  00 41  -15.4967 26136.3   3399.0   7.4097 26356.4
 13 10 2016  00 42  -15.4964 26136.5   3399.2   7.4101 26356.6
 13 10 2016  00 43  -15.4958 26136.9   3399.7   7.4111 26357.1
 13 10 2016  00 44  -15.4953 26137.3   3400.5   7.4126 26357.6
 13 10 2016  00 45  -15.4946 26138.0   3400.7   7.4128 26358.3
 13 10 2016  00 46  -15.4942 26138.5   3400.6   7.4126 26358.8
 13 10 2016  00 47  -15.4935 26138.9   3400.8   7.4129 26359.2
 13 10 2016  00 48  -15.4932 26139.1   3400.9   7.4129 26359.4
 13 10 2016  00 49  -15.4921 26139.1   3401.3   7.4138 26359.5
 13 10 2016  00 50  -15.4928 26138.6   3400.7   7.4128 26358.9
 13 10 2016  00 51  -15.4921 26138.4   3400.6   7.4124 26358.7
 13 10 2016  00 52  -15.4924 26138.1   3401.8   7.4152 26358.5
 13 10 2016  00 53  -15.4921 26138.2   3401.1   7.4136 26358.5
 13 10 2016  00 54  -15.4930 26137.8   3400.7   7.4128 26358.1
 13 10 2016  00 55  -15.4931 26137.9   3400.8   7.4131 26358.2
 13 10 2016  00 56  -15.4923 26138.4   3401.0   7.4134 26358.8
 13 10 2016  00 57  -15.4918 26138.6   3401.4   7.4142 26358.9
 13 10 2016  00 58  -15.4912 26138.8   3401.5   7.4143 26359.2
 13 10 2016  00 59  -15.4907 26139.2   3401.7   7.4148 26359.6
 13 10 2016  01 00  -15.4899 26139.5   3401.7   7.4146 26359.9
 13 10 2016  01 01  -15.4899 26139.6   3401.7   7.4145 26360.0
 13 10 2016  01 02  -15.4901 26139.8   3401.8   7.4148 26360.2
 13 10 2016  01 03  -15.4900 26140.0   3401.6   7.4143 26360.4
 13 10 2016  01 04  -15.4898 26140.2   3401.9   7.4149 26360.6
 13 10 2016  01 05  -15.4902 26140.3   3401.6   7.4142 26360.7
 13 10 2016  01 06  -15.4905 26140.4   3401.5   7.4138 26360.8
 13 10 2016  01 07  -15.4905 26140.5   3401.9   7.4147 26361.0
 13 10 2016  01 08  -15.4911 26140.5   3401.6   7.4141 26360.9
 13 10 2016  01 09  -15.4900 26140.7   3401.2   7.4131 26361.1
 13 10 2016  01 10  -15.4920 26140.4   3401.7   7.4144 26360.8
 13 10 2016  01 11  -15.4919 26140.2   3402.7   7.4166 26360.8
 13 10 2016  01 12  -15.4919 26140.3   3402.8   7.4168 26360.9
 13 10 2016  01 13  -15.4924 26140.3   3402.5   7.4162 26360.8
 13 10 2016  01 14  -15.4920 26140.6   3400.9   7.4125 26360.9
 13 10 2016  01 15  -15.4909 26141.0   3400.6   7.4119 26361.3
 13 10 2016  01 16  -15.4899 26141.1   3401.4   7.4136 26361.4
 13 10 2016  01 17  -15.4905 26140.6   3402.7   7.4165 26361.1
 13 10 2016  01 18  -15.4915 26140.6   3402.1   7.4151 26361.0
 13 10 2016  01 19  -15.4905 26140.8   3402.4   7.4158 26361.3
 13 10 2016  01 20  -15.4913 26140.8   3401.6   7.4140 26361.2
 13 10 2016  01 21  -15.4914 26140.8   3400.8   7.4123 26361.0
 13 10 2016  01 22  -15.4905 26140.8   3401.9   7.4146 26361.2
 13 10 2016  01 23  -15.4909 26140.7   3401.7   7.4143 26361.1
 13 10 2016  01 24  -15.4903 26140.9   3402.4   7.4157 26361.3
 13 10 2016  01 25  -15.4906 26140.7   3402.9   7.4168 26361.3
 13 10 2016  01 26  -15.4917 26140.2   3401.1   7.4131 26360.5
 13 10 2016  01 27  -15.4914 26140.4   3400.9   7.4127 26360.7
 13 10 2016  01 28  -15.4915 26140.4   3401.0   7.4128 26360.7
 13 10 2016  01 29  -15.4915 26140.4   3401.7   7.4143 26360.8
 13 10 2016  01 30  -15.4911 26140.6   3402.1   7.4152 26361.0
 13 10 2016  01 31  -15.4902 26141.1   3402.5   7.4158 26361.6
 13 10 2016  01 32  -15.4904 26141.2   3402.8   7.4164 26361.8
 13 10 2016  01 33  -15.4896 26141.4   3402.2   7.4151 26361.9
 13 10 2016  01 34  -15.4903 26141.4   3403.3   7.4176 26362.0
 13 10 2016  01 35  -15.4891 26142.0   3402.5   7.4155 26362.5
 13 10 2016  01 36  -15.4895 26141.8   3401.9   7.4145 26362.3
 13 10 2016  01 37  -15.4891 26141.5   3401.8   7.4143 26361.9
 13 10 2016  01 38  -15.4895 26141.3   3401.0   7.4126 26361.6
 13 10 2016  01 39  -15.4898 26141.0   3401.7   7.4142 26361.5
 13 10 2016  01 40  -15.4903 26140.6   3402.2   7.4153 26361.1
 13 10 2016  01 41  -15.4900 26140.5   3401.2   7.4131 26360.9
 13 10 2016  01 42  -15.4903 26140.4   3401.9   7.4148 26360.8
 13 10 2016  01 43  -15.4904 26140.8   3402.8   7.4166 26361.3
 13 10 2016  01 44  -15.4895 26141.7   3402.8   7.4164 26362.3
 13 10 2016  01 45  -15.4894 26142.8   3402.6   7.4157 26363.3
 13 10 2016  01 46  -15.4886 26143.3   3403.7   7.4178 26363.9
 13 10 2016  01 47  -15.4891 26143.3   3403.0   7.4163 26363.9
 13 10 2016  01 48  -15.4880 26143.8   3402.2   7.4145 26364.3
 13 10 2016  01 49  -15.4882 26143.9   3403.9   7.4180 26364.6
 13 10 2016  01 50  -15.4886 26143.8   3403.0   7.4161 26364.3
 13 10 2016  01 51  -15.4894 26142.3   3401.9   7.4143 26362.7
 13 10 2016  01 52  -15.4903 26140.8   3400.8   7.4122 26361.1
 13 10 2016  01 53  -15.4901 26140.7   3401.0   7.4128 26361.0
 13 10 2016  01 54  -15.4898 26141.8   3401.1   7.4126 26362.1
 13 10 2016  01 55  -15.4878 26144.3   3403.7   7.4175 26364.9
 13 10 2016  01 56  -15.4871 26146.6   3404.9   7.4196 26367.4
 13 10 2016  01 57  -15.4857 26148.4   3405.5   7.4204 26369.2
 13 10 2016  01 58  -15.4851 26150.4   3405.8   7.4203 26371.3
 13 10 2016  01 59  -15.4847 26152.6   3405.6   7.4193 26373.5
 13 10 2016  02 00  -15.4842 26154.2   3406.4   7.4206 26375.1
 13 10 2016  02 01  -15.4837 26155.1   3406.2   7.4199 26375.9
 13 10 2016  02 02  -15.4836 26155.8   3405.7   7.4186 26376.6
 13 10 2016  02 03  -15.4842 26155.3   3404.4   7.4159 26375.9
 13 10 2016  02 04  -15.4850 26152.8   3404.0   7.4158 26373.4
 13 10 2016  02 05  -15.4851 26151.7   3402.9   7.4137 26372.1
 13 10 2016  02 06  -15.4855 26152.1   3402.1   7.4119 26372.4
 13 10 2016  02 07  -15.4855 26152.8   3403.1   7.4139 26373.3
 13 10 2016  02 08  -15.4856 26153.4   3403.3   7.4141 26373.9
 13 10 2016  02 09  -15.4862 26153.2   3401.9   7.4111 26373.5
 13 10 2016  02 10  -15.4868 26152.2   3401.9   7.4115 26372.5
 13 10 2016  02 11  -15.4871 26151.2   3401.4   7.4107 26371.5
 13 10 2016  02 12  -15.4875 26149.7   3400.5   7.4092 26369.9
 13 10 2016  02 13  -15.4886 26148.1   3400.4   7.4093 26368.2
 13 10 2016  02 14  -15.4882 26147.4   3400.1   7.4089 26367.5
 13 10 2016  02 15  -15.4889 26146.9   3399.7   7.4082 26367.0
 13 10 2016  02 16  -15.4888 26146.4   3400.7   7.4105 26366.7
 13 10 2016  02 17  -15.4880 26147.0   3401.0   7.4110 26367.3
 13 10 2016  02 18  -15.4890 26147.4   3401.0   7.4108 26367.7
 13 10 2016  02 19  -15.4891 26147.6   3400.6   7.4099 26367.8
 13 10 2016  02 20  -15.4898 26147.5   3399.7   7.4080 26367.6
 13 10 2016  02 21  -15.4902 26147.4   3400.3   7.4094 26367.6
 13 10 2016  02 22  -15.4892 26147.4   3401.1   7.4110 26367.6
 13 10 2016  02 23  -15.4896 26147.0   3400.7   7.4102 26367.2
 13 10 2016  02 24  -15.4893 26146.8   3401.2   7.4114 26367.1
 13 10 2016  02 25  -15.4891 26146.6   3400.8   7.4106 26366.8
 13 10 2016  02 26  -15.4890 26146.3   3400.9   7.4110 26366.6
 13 10 2016  02 27  -15.4894 26146.2   3400.4   7.4100 26366.4
 13 10 2016  02 28  -15.4898 26145.9   3400.2   7.4097 26366.1
 13 10 2016  02 29  -15.4896 26145.6   3400.5   7.4103 26365.8
 13 10 2016  02 30  -15.4886 26146.6   3400.3   7.4096 26366.8
 13 10 2016  02 31  -15.4887 26147.9   3402.2   7.4133 26368.3
 13 10 2016  02 32  -15.4892 26148.7   3402.0   7.4126 26369.0
 13 10 2016  02 33  -15.4890 26148.1   3402.0   7.4129 26368.5
 13 10 2016  02 34  -15.4892 26146.3   3399.1   7.4070 26366.3
 13 10 2016  02 35  -15.4890 26144.4   3399.7   7.4089 26364.5
 13 10 2016  02 36  -15.4910 26142.7   3398.5   7.4068 26362.6
 13 10 2016  02 37  -15.4910 26142.0   3400.2   7.4106 26362.2
 13 10 2016  02 38  -15.4911 26142.6   3399.6   7.4093 26362.8
 13 10 2016  02 39  -15.4913 26143.3   3399.7   7.4091 26363.5
 13 10 2016  02 40  -15.4912 26143.3   3400.6   7.4111 26363.6
 13 10 2016  02 41  -15.4928 26143.0   3400.0   7.4100 26363.1
 13 10 2016  02 42  -15.4917 26142.7   3400.4   7.4109 26362.9
 13 10 2016  02 43  -15.4925 26141.9   3399.6   7.4094 26362.0
 13 10 2016  02 44  -15.4919 26141.9   3400.4   7.4110 26362.1
 13 10 2016  02 45  -15.4916 26142.5   3400.4   7.4109 26362.7
 13 10 2016  02 46  -15.4917 26142.5   3400.4   7.4111 26362.7
 13 10 2016  02 47  -15.4928 26140.8   3399.2   7.4088 26360.9
 13 10 2016  02 48  -15.4938 26138.3   3398.0   7.4068 26358.3
 13 10 2016  02 49  -15.4942 26137.5   3398.0   7.4072 26357.4
 13 10 2016  02 50  -15.4940 26137.8   3398.9   7.4091 26357.8
 13 10 2016  02 51  -15.4940 26138.3   3399.3   7.4098 26358.4
 13 10 2016  02 52  -15.4937 26139.1   3400.4   7.4119 26359.4
 13 10 2016  02 53  -15.4926 26141.0   3401.5   7.4137 26361.3
 13 10 2016  02 54  -15.4916 26143.6   3402.4   7.4150 26364.0
 13 10 2016  02 55  -15.4914 26144.5   3403.1   7.4162 26365.0
 13 10 2016  02 56  -15.4911 26143.9   3402.1   7.4143 26364.3
 13 10 2016  02 57  -15.4912 26143.3   3401.0   7.4119 26363.6
 13 10 2016  02 58  -15.4901 26143.5   3401.2   7.4124 26363.9
 13 10 2016  02 59  -15.4904 26143.3   3401.5   7.4131 26363.7
 13 10 2016  03 00  -15.4919 26143.1   3399.4   7.4086 26363.2
 13 10 2016  03 01  -15.4913 26142.8   3400.3   7.4107 26363.0
 13 10 2016  03 02  -15.4912 26142.9   3399.5   7.4088 26363.0
 13 10 2016  03 03  -15.4918 26142.7   3399.8   7.4097 26362.8
 13 10 2016  03 04  -15.4909 26142.7   3400.4   7.4108 26362.9
 13 10 2016  03 05  -15.4919 26142.3   3400.5   7.4111 26362.6
 13 10 2016  03 06  -15.4916 26142.3   3400.3   7.4109 26362.5
 13 10 2016  03 07  -15.4924 26142.3   3399.2   7.4085 26362.4
 13 10 2016  03 08  -15.4942 26141.4   3399.2   7.4086 26361.5
 13 10 2016  03 09  -15.4946 26140.3   3399.6   7.4099 26360.4
 13 10 2016  03 10  -15.4953 26140.4   3399.4   7.4094 26360.5
 13 10 2016  03 11  -15.4937 26140.1   3400.7   7.4123 26360.4
 13 10 2016  03 12  -15.4950 26139.6   3399.4   7.4096 26359.7
 13 10 2016  03 13  -15.4951 26138.9   3400.8   7.4129 26359.2
 13 10 2016  03 14  -15.4955 26138.2   3400.5   7.4124 26358.4
 13 10 2016  03 15  -15.4955 26138.4   3399.2   7.4096 26358.5
 13 10 2016  03 16  -15.4961 26137.8   3398.7   7.4086 26357.9
 13 10 2016  03 17  -15.4959 26137.3   3398.9   7.4092 26357.3
 13 10 2016  03 18  -15.4965 26137.3   3398.9   7.4093 26357.4
 13 10 2016  03 19  -15.4948 26138.1   3400.5   7.4123 26358.4
 13 10 2016  03 20  -15.4959 26137.5   3401.6   7.4149 26357.9
 13 10 2016  03 21  -15.4956 26138.6   3400.0   7.4113 26358.8
 13 10 2016  03 22  -15.4965 26138.6   3399.3   7.4097 26358.7
 13 10 2016  03 23  -15.4965 26139.6   3400.6   7.4121 26359.9
 13 10 2016  03 24  -15.4952 26140.1   3401.1   7.4132 26360.4
 13 10 2016  03 25  -15.4962 26140.2   3402.7   7.4164 26360.8
 13 10 2016  03 26  -15.4952 26141.5   3402.4   7.4156 26362.0
 13 10 2016  03 27  -15.4964 26141.1   3401.2   7.4131 26361.5
 13 10 2016  03 28  -15.4968 26140.3   3401.1   7.4130 26360.6
 13 10 2016  03 29  -15.4976 26138.8   3399.7   7.4105 26359.0
 13 10 2016  03 30  -15.4989 26138.0   3399.8   7.4110 26358.1
 13 10 2016  03 31  -15.4992 26137.1   3399.1   7.4097 26357.2
 13 10 2016  03 32  -15.4994 26136.9   3399.8   7.4111 26357.1
 13 10 2016  03 33  -15.4991 26136.8   3400.7   7.4132 26357.1
 13 10 2016  03 34  -15.4992 26137.0   3400.1   7.4119 26357.2
 13 10 2016  03 35  -15.4986 26137.2   3401.3   7.4144 26357.6
 13 10 2016  03 36  -15.4980 26137.1   3399.9   7.4113 26357.3
 13 10 2016  03 37  -15.4994 26135.8   3400.1   7.4122 26356.1
 13 10 2016  03 38  -15.4995 26133.8   3399.7   7.4118 26354.0
 13 10 2016  03 39  -15.5006 26133.3   3397.9   7.4081 26353.3
 13 10 2016  03 40  -15.5013 26132.4   3399.0   7.4107 26352.5
 13 10 2016  03 41  -15.5012 26132.8   3399.7   7.4122 26353.0
 13 10 2016  03 42  -15.4998 26133.8   3401.6   7.4160 26354.2
 13 10 2016  03 43  -15.4988 26134.8   3401.2   7.4148 26355.2
 13 10 2016  03 44  -15.4992 26135.1   3401.2   7.4147 26355.5
 13 10 2016  03 45  -15.4995 26135.5   3401.4   7.4150 26355.9
 13 10 2016  03 46  -15.4990 26135.6   3401.5   7.4154 26356.1
 13 10 2016  03 47  -15.4999 26135.4   3401.5   7.4153 26355.8
 13 10 2016  03 48  -15.5002 26135.5   3401.3   7.4150 26355.9
 13 10 2016  03 49  -15.4995 26136.4   3400.3   7.4125 26356.7
 13 10 2016  03 50  -15.4994 26136.9   3401.8   7.4156 26357.3
 13 10 2016  03 51  -15.4984 26137.6   3401.4   7.4145 26358.0
 13 10 2016  03 52  -15.4982 26137.2   3402.5   7.4170 26357.8
 13 10 2016  03 53  -15.4986 26136.6   3402.3   7.4167 26357.1
 13 10 2016  03 54  -15.4989 26135.8   3400.7   7.4134 26356.1
 13 10 2016  03 55  -15.4981 26135.3   3399.6   7.4112 26355.4
 13 10 2016  03 56  -15.4992 26133.9   3400.6   7.4139 26354.2
 13 10 2016  03 57  -15.4991 26133.5   3399.8   7.4121 26353.7
 13 10 2016  03 58  -15.5002 26132.8   3398.5   7.4095 26352.9
 13 10 2016  03 59  -15.4991 26132.7   3400.3   7.4135 26352.9
 13 10 2016  04 00  -15.4990 26132.5   3400.1   7.4131 26352.8
 13 10 2016  04 01  -15.4981 26132.8   3400.8   7.4146 26353.2
 13 10 2016  04 02  -15.4989 26133.0   3401.4   7.4157 26353.4
 13 10 2016  04 03  -15.4967 26134.1   3401.9   7.4166 26354.6
 13 10 2016  04 04  -15.4961 26134.5   3401.8   7.4162 26355.0
 13 10 2016  04 05  -15.4980 26133.7   3401.3   7.4155 26354.1
 13 10 2016  04 06  -15.4975 26133.0   3401.7   7.4164 26353.4
 13 10 2016  04 07  -15.4974 26132.4   3400.0   7.4128 26352.7
 13 10 2016  04 08  -15.4979 26131.6   3400.5   7.4142 26351.9
 13 10 2016  04 09  -15.4965 26131.7   3400.6   7.4143 26352.0
 13 10 2016  04 10  -15.4981 26130.9   3398.8   7.4107 26351.0
 13 10 2016  04 11  -15.4967 26131.0   3400.3   7.4140 26351.3
 13 10 2016  04 12  -15.4984 26130.6   3398.6   7.4105 26350.7
 13 10 2016  04 13  -15.4994 26130.1   3399.1   7.4117 26350.3
 13 10 2016  04 14  -15.4997 26129.6   3400.1   7.4139 26349.9
 13 10 2016  04 15  -15.4999 26129.5   3400.9   7.4157 26349.9
 13 10 2016  04 16  -15.4986 26129.7   3400.9   7.4156 26350.1
 13 10 2016  04 17  -15.4994 26130.0   3400.7   7.4152 26350.3
 13 10 2016  04 18  -15.4986 26129.8   3401.1   7.4160 26350.2
 13 10 2016  04 19  -15.4997 26130.3   3400.2   7.4139 26350.6
 13 10 2016  04 20  -15.5000 26129.7   3400.4   7.4146 26350.0
 13 10 2016  04 21  -15.4995 26129.7   3401.6   7.4171 26350.2
 13 10 2016  04 22  -15.4997 26129.6   3402.0   7.4181 26350.1
 13 10 2016  04 23  -15.4999 26129.5   3400.8   7.4155 26349.9
 13 10 2016  04 24  -15.5002 26129.1   3401.3   7.4167 26349.5
 13 10 2016  04 25  -15.5011 26128.7   3400.2   7.4143 26349.0
 13 10 2016  04 26  -15.5026 26128.2   3398.4   7.4106 26348.3
 13 10 2016  04 27  -15.5032 26127.5   3400.0   7.4143 26347.8
 13 10 2016  04 28  -15.5027 26128.3   3399.4   7.4128 26348.5
 13 10 2016  04 29  -15.5018 26129.2   3401.0   7.4159 26349.6
 13 10 2016  04 30  -15.5026 26129.8   3401.2   7.4162 26350.3
 13 10 2016  04 31  -15.5024 26130.4   3400.1   7.4137 26350.6
 13 10 2016  04 32  -15.5025 26130.1   3401.1   7.4159 26350.5
 13 10 2016  04 33  -15.5024 26130.3   3400.7   7.4150 26350.6
 13 10 2016  04 34  -15.5038 26130.1   3400.0   7.4135 26350.3
 13 10 2016  04 35  -15.5043 26129.7   3400.1   7.4140 26350.0
 13 10 2016  04 36  -15.5029 26129.6   3401.5   7.4170 26350.1
 13 10 2016  04 37  -15.5027 26129.9   3400.8   7.4153 26350.2
 13 10 2016  04 38  -15.5036 26129.6   3401.0   7.4158 26350.0
 13 10 2016  04 39  -15.5049 26128.8   3400.4   7.4148 26349.1
 13 10 2016  04 40  -15.5037 26129.2   3399.3   7.4123 26349.4
 13 10 2016  04 41  -15.5044 26128.9   3400.1   7.4140 26349.2
 13 10 2016  04 42  -15.5046 26128.7   3400.4   7.4148 26349.1
 13 10 2016  04 43  -15.5042 26129.3   3401.0   7.4159 26349.7
 13 10 2016  04 44  -15.5046 26129.1   3401.1   7.4162 26349.5
 13 10 2016  04 45  -15.5044 26129.3   3399.6   7.4130 26349.5
 13 10 2016  04 46  -15.5040 26128.9   3400.9   7.4158 26349.3
 13 10 2016  04 47  -15.5041 26128.8   3401.2   7.4166 26349.2
 13 10 2016  04 48  -15.5035 26129.3   3400.9   7.4157 26349.7
 13 10 2016  04 49  -15.5050 26129.2   3401.1   7.4162 26349.6
 13 10 2016  04 50  -15.5051 26129.6   3401.1   7.4161 26350.0
 13 10 2016  04 51  -15.5042 26130.1   3401.1   7.4160 26350.5
 13 10 2016  04 52  -15.5051 26130.0   3400.8   7.4153 26350.4
 13 10 2016  04 53  -15.5039 26130.4   3401.6   7.4168 26350.9
 13 10 2016  04 54  -15.5036 26131.1   3402.2   7.4181 26351.7
 13 10 2016  04 55  -15.5028 26131.8   3401.6   7.4165 26352.3
 13 10 2016  04 56  -15.5010 26133.0   3401.8   7.4167 26353.5
 13 10 2016  04 57  -15.5015 26132.0   3400.4   7.4138 26352.3
 13 10 2016  04 58  -15.5028 26131.6   3400.2   7.4135 26351.8
 13 10 2016  04 59  -15.5021 26130.8   3400.9   7.4153 26351.2
 13 10 2016  05 00  -15.5023 26130.3   3400.2   7.4139 26350.6
 13 10 2016  05 01  -15.5046 26128.8   3398.9   7.4115 26349.0
 13 10 2016  05 02  -15.5058 26128.3   3398.7   7.4112 26348.4
 13 10 2016  05 03  -15.5069 26127.8   3399.1   7.4122 26348.0
 13 10 2016  05 04  -15.5061 26128.1   3399.9   7.4140 26348.4
 13 10 2016  05 05  -15.5076 26127.7   3400.1   7.4144 26348.0
 13 10 2016  05 06  -15.5082 26128.0   3399.1   7.4122 26348.1
 13 10 2016  05 07  -15.5082 26127.8   3400.3   7.4148 26348.1
 13 10 2016  05 08  -15.5091 26127.8   3399.4   7.4128 26348.0
 13 10 2016  05 09  -15.5095 26127.6   3400.1   7.4145 26347.9
 13 10 2016  05 10  -15.5078 26127.9   3401.7   7.4179 26348.4
 13 10 2016  05 11  -15.5088 26127.8   3400.4   7.4150 26348.1
