Manaus - AM                    UNIVAP-03  <293> 1 Min. Reported data

 DD MM YYYY  HH MM   D(Deg)  H(nT)   Z(nT)   I(Deg)   F(nT)

 19 10 2016  00 00  -15.4974 26138.6   3404.2   7.4201 26359.3
 19 10 2016  00 01  -15.4965 26138.6   3404.8   7.4216 26359.4
 19 10 2016  00 02  -15.4962 26138.4   3403.9   7.4197 26359.1
 19 10 2016  00 03  -15.4960 26137.9   3403.9   7.4197 26358.6
 19 10 2016  00 04  -15.4960 26137.8   3404.0   7.4200 26358.6
 19 10 2016  00 05  -15.4963 26138.2   3403.6   7.4190 26358.8
 19 10 2016  00 06  -15.4958 26138.5   3403.8   7.4195 26359.2
 19 10 2016  00 07  -15.4960 26138.4   3404.4   7.4208 26359.1
 19 10 2016  00 08  -15.4960 26137.9   3404.1   7.4202 26358.7
 19 10 2016  00 09  -15.4964 26137.6   3402.4   7.4166 26358.1
 19 10 2016  00 10  -15.4953 26137.5   3403.7   7.4194 26358.2
 19 10 2016  00 11  -15.4967 26137.4   3403.3   7.4187 26358.0
 19 10 2016  00 12  -15.4975 26137.3   3403.2   7.4185 26357.9
 19 10 2016  00 13  -15.4976 26137.2   3402.6   7.4171 26357.8
 19 10 2016  00 14  -15.4995 26136.9   3402.3   7.4166 26357.4
 19 10 2016  00 15  -15.5007 26137.1   3403.2   7.4184 26357.7
 19 10 2016  00 16  -15.5006 26137.6   3403.7   7.4194 26358.3
 19 10 2016  00 17  -15.5010 26137.0   3403.3   7.4188 26357.6
 19 10 2016  00 18  -15.5019 26136.2   3403.2   7.4188 26356.8
 19 10 2016  00 19  -15.5023 26136.3   3402.2   7.4165 26356.8
 19 10 2016  00 20  -15.5037 26136.5   3401.1   7.4142 26356.8
 19 10 2016  00 21  -15.5027 26136.5   3403.5   7.4193 26357.1
 19 10 2016  00 22  -15.5032 26136.0   3404.3   7.4213 26356.8
 19 10 2016  00 23  -15.5044 26135.4   3402.1   7.4167 26355.9
 19 10 2016  00 24  -15.5027 26135.0   3402.9   7.4184 26355.6
 19 10 2016  00 25  -15.5028 26133.7   3402.6   7.4182 26354.3
 19 10 2016  00 26  -15.5036 26133.4   3402.6   7.4182 26354.0
 19 10 2016  00 27  -15.5044 26133.5   3403.0   7.4190 26354.2
 19 10 2016  00 28  -15.5050 26133.7   3402.8   7.4186 26354.3
 19 10 2016  00 29  -15.5049 26134.3   3403.2   7.4193 26355.0
 19 10 2016  00 30  -15.5059 26134.6   3402.5   7.4176 26355.2
 19 10 2016  00 31  -15.5061 26135.1   3402.6   7.4178 26355.7
 19 10 2016  00 32  -15.5060 26135.1   3404.3   7.4215 26355.9
 19 10 2016  00 33  -15.5061 26135.1   3403.9   7.4205 26355.8
 19 10 2016  00 34  -15.5059 26135.0   3402.9   7.4184 26355.6
 19 10 2016  00 35  -15.5052 26134.9   3403.4   7.4196 26355.6
 19 10 2016  00 36  -15.5033 26134.9   3403.1   7.4189 26355.5
 19 10 2016  00 37  -15.5037 26134.0   3402.1   7.4170 26354.5
 19 10 2016  00 38  -15.5050 26133.0   3401.2   7.4153 26353.4
 19 10 2016  00 39  -15.5047 26132.4   3402.7   7.4187 26353.0
 19 10 2016  00 40  -15.5049 26132.4   3403.7   7.4208 26353.1
 19 10 2016  00 41  -15.5054 26132.7   3401.9   7.4168 26353.2
 19 10 2016  00 42  -15.5048 26132.8   3403.5   7.4203 26353.5
 19 10 2016  00 43  -15.5048 26132.7   3403.0   7.4194 26353.3
 19 10 2016  00 44  -15.5044 26132.7   3403.2   7.4197 26353.4
 19 10 2016  00 45  -15.5038 26132.7   3404.0   7.4215 26353.5
 19 10 2016  00 46  -15.5041 26132.7   3402.6   7.4185 26353.3
 19 10 2016  00 47  -15.5038 26132.4   3403.8   7.4212 26353.1
 19 10 2016  00 48  -15.5035 26132.1   3404.6   7.4230 26353.0
 19 10 2016  00 49  -15.5039 26132.3   3403.3   7.4200 26353.0
 19 10 2016  00 50  -15.5048 26132.1   3403.3   7.4202 26352.8
 19 10 2016  00 51  -15.5045 26132.3   3402.9   7.4193 26352.9
 19 10 2016  00 52  -15.5054 26131.8   3402.9   7.4194 26352.4
 19 10 2016  00 53  -15.5040 26132.0   3403.4   7.4203 26352.7
 19 10 2016  00 54  -15.5045 26131.5   3403.6   7.4209 26352.2
 19 10 2016  00 55  -15.5057 26131.1   3402.2   7.4181 26351.6
 19 10 2016  00 56  -15.5033 26131.2   3403.8   7.4215 26351.9
 19 10 2016  00 57  -15.5038 26130.7   3403.5   7.4209 26351.4
 19 10 2016  00 58  -15.5040 26130.2   3403.6   7.4212 26350.9
 19 10 2016  00 59  -15.5041 26130.6   3401.2   7.4160 26351.0
 19 10 2016  01 00  -15.5044 26130.3   3403.4   7.4208 26351.0
 19 10 2016  01 01  -15.5042 26130.8   3402.3   7.4184 26351.4
 19 10 2016  01 02  -15.5041 26130.5   3402.8   7.4194 26351.1
 19 10 2016  01 03  -15.5043 26130.4   3401.5   7.4167 26350.8
 19 10 2016  01 04  -15.5049 26129.8   3402.9   7.4198 26350.5
 19 10 2016  01 05  -15.5043 26129.8   3403.3   7.4209 26350.5
 19 10 2016  01 06  -15.5031 26130.2   3403.2   7.4205 26350.9
 19 10 2016  01 07  -15.5044 26129.7   3402.8   7.4197 26350.3
 19 10 2016  01 08  -15.5049 26129.4   3401.6   7.4173 26349.9
 19 10 2016  01 09  -15.5043 26129.2   3402.8   7.4199 26349.8
 19 10 2016  01 10  -15.5038 26129.4   3402.1   7.4183 26350.0
 19 10 2016  01 11  -15.5029 26129.4   3403.4   7.4212 26350.2
 19 10 2016  01 12  -15.5043 26129.2   3402.3   7.4189 26349.8
 19 10 2016  01 13  -15.5043 26129.2   3403.3   7.4208 26349.9
 19 10 2016  01 14  -15.5051 26129.5   3402.5   7.4192 26350.1
 19 10 2016  01 15  -15.5039 26129.7   3405.1   7.4248 26350.6
 19 10 2016  01 16  -15.5045 26130.4   3402.0   7.4178 26350.9
 19 10 2016  01 17  -15.5047 26130.3   3403.8   7.4217 26351.1
 19 10 2016  01 18  -15.5044 26131.0   3403.7   7.4213 26351.8
 19 10 2016  01 19  -15.5047 26131.0   3405.1   7.4243 26352.0
 19 10 2016  01 20  -15.5047 26131.2   3403.6   7.4209 26351.9
 19 10 2016  01 21  -15.5038 26131.7   3403.5   7.4207 26352.4
 19 10 2016  01 22  -15.5024 26131.3   3405.5   7.4251 26352.3
 19 10 2016  01 23  -15.5015 26131.4   3404.4   7.4228 26352.3
 19 10 2016  01 24  -15.5022 26131.8   3402.1   7.4177 26352.3
 19 10 2016  01 25  -15.5024 26131.5   3403.4   7.4206 26352.2
 19 10 2016  01 26  -15.5008 26131.8   3404.5   7.4228 26352.7
 19 10 2016  01 27  -15.5030 26131.4   3403.8   7.4214 26352.1
 19 10 2016  01 28  -15.5025 26131.7   3402.0   7.4175 26352.2
 19 10 2016  01 29  -15.5037 26131.1   3402.4   7.4185 26351.7
 19 10 2016  01 30  -15.5026 26131.4   3403.7   7.4212 26352.2
 19 10 2016  01 31  -15.5048 26131.1   3401.4   7.4163 26351.5
 19 10 2016  01 32  -15.5042 26131.2   3402.1   7.4177 26351.7
 19 10 2016  01 33  -15.5045 26131.2   3401.3   7.4160 26351.6
 19 10 2016  01 34  -15.5037 26130.9   3404.0   7.4220 26351.6
 19 10 2016  01 35  -15.5042 26131.0   3402.8   7.4194 26351.6
 19 10 2016  01 36  -15.5030 26131.2   3403.8   7.4214 26352.0
 19 10 2016  01 37  -15.5048 26130.9   3402.0   7.4176 26351.4
 19 10 2016  01 38  -15.5043 26130.9   3402.8   7.4193 26351.5
 19 10 2016  01 39  -15.5033 26131.5   3403.7   7.4211 26352.2
 19 10 2016  01 40  -15.5042 26131.5   3402.7   7.4189 26352.1
 19 10 2016  01 41  -15.5045 26131.5   3403.2   7.4201 26352.2
 19 10 2016  01 42  -15.5031 26131.9   3403.7   7.4211 26352.6
 19 10 2016  01 43  -15.5037 26131.9   3403.3   7.4203 26352.6
 19 10 2016  01 44  -15.5019 26132.1   3403.6   7.4207 26352.8
 19 10 2016  01 45  -15.5015 26131.7   3403.4   7.4203 26352.4
 19 10 2016  01 46  -15.5022 26131.3   3402.5   7.4187 26351.9
 19 10 2016  01 47  -15.5042 26130.5   3402.1   7.4180 26351.0
 19 10 2016  01 48  -15.5037 26130.4   3401.8   7.4174 26350.9
 19 10 2016  01 49  -15.5043 26129.9   3401.7   7.4173 26350.4
 19 10 2016  01 50  -15.5035 26129.5   3403.0   7.4202 26350.2
 19 10 2016  01 51  -15.5039 26129.0   3404.0   7.4224 26349.8
 19 10 2016  01 52  -15.5040 26128.8   3403.6   7.4216 26349.5
 19 10 2016  01 53  -15.5034 26129.3   3401.6   7.4173 26349.8
 19 10 2016  01 54  -15.5049 26128.6   3401.8   7.4179 26349.1
 19 10 2016  01 55  -15.5054 26128.2   3401.8   7.4181 26348.7
 19 10 2016  01 56  -15.5062 26127.9   3402.0   7.4184 26348.5
 19 10 2016  01 57  -15.5048 26128.2   3402.6   7.4197 26348.8
 19 10 2016  01 58  -15.5062 26127.6   3401.9   7.4184 26348.1
 19 10 2016  01 59  -15.5066 26127.2   3402.4   7.4197 26347.8
 19 10 2016  02 00  -15.5064 26126.9   3402.1   7.4189 26347.5
 19 10 2016  02 01  -15.5066 26126.6   3402.1   7.4190 26347.2
 19 10 2016  02 02  -15.5072 26126.4   3401.5   7.4179 26346.9
 19 10 2016  02 03  -15.5055 26126.4   3403.6   7.4224 26347.2
 19 10 2016  02 04  -15.5056 26126.3   3403.3   7.4218 26347.1
 19 10 2016  02 05  -15.5070 26125.8   3402.7   7.4206 26346.5
 19 10 2016  02 06  -15.5070 26125.5   3404.1   7.4237 26346.3
 19 10 2016  02 07  -15.5083 26126.0   3401.7   7.4183 26346.6
 19 10 2016  02 08  -15.5091 26125.8   3403.9   7.4231 26346.6
 19 10 2016  02 09  -15.5087 26126.7   3402.6   7.4202 26347.3
 19 10 2016  02 10  -15.5108 26126.5   3403.2   7.4215 26347.3
 19 10 2016  02 11  -15.5111 26127.3   3403.3   7.4215 26348.0
 19 10 2016  02 12  -15.5091 26127.8   3402.4   7.4194 26348.4
 19 10 2016  02 13  -15.5066 26128.0   3405.7   7.4264 26349.0
 19 10 2016  02 14  -15.5078 26127.8   3403.4   7.4216 26348.5
 19 10 2016  02 15  -15.5065 26127.5   3404.1   7.4230 26348.3
 19 10 2016  02 16  -15.5075 26127.2   3402.3   7.4194 26347.8
 19 10 2016  02 17  -15.5077 26127.1   3402.3   7.4193 26347.7
 19 10 2016  02 18  -15.5060 26127.5   3402.6   7.4199 26348.2
 19 10 2016  02 19  -15.5075 26126.9   3401.4   7.4175 26347.4
 19 10 2016  02 20  -15.5055 26127.0   3402.9   7.4207 26347.6
 19 10 2016  02 21  -15.5062 26126.2   3403.1   7.4213 26346.9
 19 10 2016  02 22  -15.5048 26126.3   3402.2   7.4195 26346.9
 19 10 2016  02 23  -15.5069 26125.6   3401.1   7.4172 26346.1
 19 10 2016  02 24  -15.5057 26125.2   3403.7   7.4229 26345.9
 19 10 2016  02 25  -15.5049 26125.0   3403.6   7.4228 26345.8
 19 10 2016  02 26  -15.5044 26125.0   3403.2   7.4220 26345.7
 19 10 2016  02 27  -15.5061 26124.6   3401.7   7.4188 26345.1
 19 10 2016  02 28  -15.5064 26124.6   3400.8   7.4169 26345.1
 19 10 2016  02 29  -15.5056 26124.9   3401.2   7.4177 26345.4
 19 10 2016  02 30  -15.5054 26124.9   3401.1   7.4174 26345.4
 19 10 2016  02 31  -15.5044 26125.2   3401.5   7.4181 26345.7
 19 10 2016  02 32  -15.5040 26125.6   3401.7   7.4184 26346.1
 19 10 2016  02 33  -15.5024 26126.0   3405.0   7.4256 26347.0
 19 10 2016  02 34  -15.5018 26126.8   3405.1   7.4255 26347.8
 19 10 2016  02 35  -15.5028 26127.1   3404.2   7.4235 26348.0
 19 10 2016  02 36  -15.5011 26127.7   3405.5   7.4261 26348.7
 19 10 2016  02 37  -15.5018 26127.1   3405.6   7.4265 26348.1
 19 10 2016  02 38  -15.5011 26127.4   3405.6   7.4263 26348.4
 19 10 2016  02 39  -15.5035 26127.0   3402.1   7.4189 26347.6
 19 10 2016  02 40  -15.5016 26127.1   3403.6   7.4221 26347.8
 19 10 2016  02 41  -15.5018 26126.7   3404.1   7.4234 26347.6
 19 10 2016  02 42  -15.5025 26126.7   3402.8   7.4206 26347.4
 19 10 2016  02 43  -15.5037 26126.5   3403.5   7.4221 26347.2
 19 10 2016  02 44  -15.5028 26127.0   3403.6   7.4221 26347.8
 19 10 2016  02 45  -15.5047 26126.9   3401.6   7.4180 26347.4
 19 10 2016  02 46  -15.5034 26127.0   3403.3   7.4215 26347.7
 19 10 2016  02 47  -15.5026 26126.8   3404.4   7.4240 26347.7
 19 10 2016  02 48  -15.5033 26126.6   3402.7   7.4204 26347.2
 19 10 2016  02 49  -15.5045 26125.8   3403.6   7.4224 26346.6
 19 10 2016  02 50  -15.5039 26125.9   3404.2   7.4237 26346.8
 19 10 2016  02 51  -15.5032 26126.0   3404.5   7.4243 26346.9
 19 10 2016  02 52  -15.5020 26126.3   3404.2   7.4237 26347.1
 19 10 2016  02 53  -15.5035 26126.2   3402.2   7.4194 26346.8
 19 10 2016  02 54  -15.5031 26125.9   3404.1   7.4236 26346.7
 19 10 2016  02 55  -15.5019 26125.7   3404.7   7.4249 26346.7
 19 10 2016  02 56  -15.5040 26124.4   3403.3   7.4222 26345.1
 19 10 2016  02 57  -15.5035 26124.7   3403.5   7.4226 26345.4
 19 10 2016  02 58  -15.5029 26124.9   3402.6   7.4207 26345.5
 19 10 2016  02 59  -15.5030 26124.5   3403.1   7.4218 26345.2
 19 10 2016  03 00  -15.5044 26123.8   3403.0   7.4217 26344.5
 19 10 2016  03 01  -15.5044 26123.8   3401.8   7.4193 26344.3
 19 10 2016  03 02  -15.5033 26123.6   3403.9   7.4238 26344.4
 19 10 2016  03 03  -15.5045 26123.2   3401.8   7.4194 26343.8
 19 10 2016  03 04  -15.5040 26122.9   3403.2   7.4225 26343.7
 19 10 2016  03 05  -15.5050 26122.7   3401.7   7.4194 26343.3
 19 10 2016  03 06  -15.5041 26122.6   3403.9   7.4240 26343.4
 19 10 2016  03 07  -15.5042 26122.6   3404.3   7.4249 26343.5
 19 10 2016  03 08  -15.5036 26123.1   3403.8   7.4236 26343.9
 19 10 2016  03 09  -15.5038 26123.2   3402.8   7.4214 26343.9
 19 10 2016  03 10  -15.5037 26123.2   3403.4   7.4228 26344.0
 19 10 2016  03 11  -15.5057 26122.9   3402.8   7.4217 26343.6
 19 10 2016  03 12  -15.5045 26123.4   3403.0   7.4219 26344.1
 19 10 2016  03 13  -15.5044 26123.4   3404.9   7.4259 26344.4
 19 10 2016  03 14  -15.5032 26123.9   3403.8   7.4235 26344.7
 19 10 2016  03 15  -15.5050 26123.3   3403.5   7.4230 26344.1
 19 10 2016  03 16  -15.5051 26123.6   3403.7   7.4234 26344.4
 19 10 2016  03 17  -15.5028 26124.3   3405.1   7.4262 26345.3
 19 10 2016  03 18  -15.5024 26124.8   3404.6   7.4251 26345.7
 19 10 2016  03 19  -15.5028 26125.6   3403.1   7.4215 26346.3
 19 10 2016  03 20  -15.5038 26125.5   3402.9   7.4212 26346.2
 19 10 2016  03 21  -15.5038 26125.9   3403.5   7.4223 26346.6
 19 10 2016  03 22  -15.5039 26126.0   3403.4   7.4220 26346.8
 19 10 2016  03 23  -15.5028 26126.4   3403.9   7.4231 26347.2
 19 10 2016  03 24  -15.5032 26126.5   3403.7   7.4226 26347.3
 19 10 2016  03 25  -15.5035 26126.4   3403.3   7.4217 26347.2
 19 10 2016  03 26  -15.5042 26126.5   3403.0   7.4210 26347.2
 19 10 2016  03 27  -15.5032 26126.7   3404.0   7.4231 26347.5
 19 10 2016  03 28  -15.5036 26126.6   3403.7   7.4225 26347.3
 19 10 2016  03 29  -15.5038 26127.0   3402.9   7.4207 26347.6
 19 10 2016  03 30  -15.5036 26126.7   3404.1   7.4234 26347.5
 19 10 2016  03 31  -15.5026 26127.3   3404.1   7.4231 26348.1
 19 10 2016  03 32  -15.5032 26127.3   3403.7   7.4223 26348.1
 19 10 2016  03 33  -15.5031 26127.3   3404.3   7.4236 26348.1
 19 10 2016  03 34  -15.5032 26127.6   3403.7   7.4222 26348.4
 19 10 2016  03 35  -15.5037 26127.7   3403.6   7.4220 26348.5
 19 10 2016  03 36  -15.5023 26127.9   3404.8   7.4245 26348.8
 19 10 2016  03 37  -15.5035 26128.0   3403.1   7.4209 26348.6
 19 10 2016  03 38  -15.5027 26128.4   3402.6   7.4197 26349.0
 19 10 2016  03 39  -15.5018 26128.6   3404.7   7.4242 26349.5
 19 10 2016  03 40  -15.5027 26128.2   3403.9   7.4225 26349.0
 19 10 2016  03 41  -15.5035 26128.4   3402.6   7.4197 26349.1
 19 10 2016  03 42  -15.5030 26128.4   3404.6   7.4239 26349.2
 19 10 2016  03 43  -15.5029 26128.6   3404.9   7.4245 26349.5
 19 10 2016  03 44  -15.5041 26128.9   3401.7   7.4176 26349.4
 19 10 2016  03 45  -15.5041 26129.0   3401.9   7.4180 26349.6
 19 10 2016  03 46  -15.5030 26129.3   3403.2   7.4207 26350.0
 19 10 2016  03 47  -15.5039 26129.1   3404.2   7.4228 26349.9
 19 10 2016  03 48  -15.5029 26129.6   3405.4   7.4253 26350.6
 19 10 2016  03 49  -15.5025 26129.5   3405.1   7.4248 26350.5
 19 10 2016  03 50  -15.5020 26130.6   3405.2   7.4247 26351.5
 19 10 2016  03 51  -15.5020 26130.5   3405.4   7.4251 26351.4
 19 10 2016  03 52  -15.5027 26130.6   3405.0   7.4241 26351.5
 19 10 2016  03 53  -15.5028 26130.9   3404.0   7.4220 26351.7
 19 10 2016  03 54  -15.5029 26130.9   3404.5   7.4230 26351.7
 19 10 2016  03 55  -15.5024 26131.0   3403.4   7.4205 26351.7
 19 10 2016  03 56  -15.5031 26130.8   3403.6   7.4212 26351.6
 19 10 2016  03 57  -15.5032 26131.0   3403.3   7.4204 26351.7
 19 10 2016  03 58  -15.5030 26131.2   3402.7   7.4190 26351.8
 19 10 2016  03 59  -15.5030 26131.1   3402.8   7.4194 26351.8
 19 10 2016  04 00  -15.5031 26131.2   3403.3   7.4203 26351.9
 19 10 2016  04 01  -15.5042 26131.1   3402.2   7.4181 26351.7
 19 10 2016  04 02  -15.5024 26131.8   3402.6   7.4187 26352.4
 19 10 2016  04 03  -15.5025 26132.0   3402.2   7.4178 26352.5
 19 10 2016  04 04  -15.5039 26131.8   3401.4   7.4162 26352.2
 19 10 2016  04 05  -15.5028 26131.7   3404.2   7.4221 26352.5
 19 10 2016  04 06  -15.5026 26132.0   3402.8   7.4190 26352.6
 19 10 2016  04 07  -15.5021 26132.1   3403.5   7.4206 26352.8
 19 10 2016  04 08  -15.5037 26132.0   3400.9   7.4151 26352.4
 19 10 2016  04 09  -15.5027 26132.0   3403.1   7.4197 26352.6
 19 10 2016  04 10  -15.5026 26131.7   3403.2   7.4200 26352.4
 19 10 2016  04 11  -15.5036 26131.6   3400.8   7.4149 26351.9
 19 10 2016  04 12  -15.5031 26131.2   3401.9   7.4173 26351.7
 19 10 2016  04 13  -15.5024 26131.2   3402.3   7.4183 26351.7
 19 10 2016  04 14  -15.5021 26131.2   3401.9   7.4174 26351.7
 19 10 2016  04 15  -15.5035 26130.6   3402.7   7.4193 26351.2
 19 10 2016  04 16  -15.5033 26130.9   3401.4   7.4164 26351.4
 19 10 2016  04 17  -15.5040 26130.6   3401.6   7.4168 26351.0
 19 10 2016  04 18  -15.5036 26130.5   3401.4   7.4164 26351.0
 19 10 2016  04 19  -15.5027 26130.3   3402.6   7.4192 26350.9
 19 10 2016  04 20  -15.5027 26129.9   3403.3   7.4207 26350.6
 19 10 2016  04 21  -15.5036 26129.5   3401.5   7.4169 26349.9
 19 10 2016  04 22  -15.5032 26129.1   3402.1   7.4183 26349.7
 19 10 2016  04 23  -15.5016 26129.3   3403.0   7.4201 26350.0
 19 10 2016  04 24  -15.5025 26129.1   3402.5   7.4193 26349.7
 19 10 2016  04 25  -15.5027 26129.1   3401.6   7.4173 26349.6
 19 10 2016  04 26  -15.5023 26128.9   3402.0   7.4183 26349.4
 19 10 2016  04 27  -15.5012 26129.1   3402.7   7.4196 26349.8
 19 10 2016  04 28  -15.5013 26128.7   3403.6   7.4217 26349.4
 19 10 2016  04 29  -15.5028 26128.2   3402.2   7.4189 26348.7
 19 10 2016  04 30  -15.5032 26128.1   3401.9   7.4182 26348.6
 19 10 2016  04 31  -15.5044 26127.5   3401.3   7.4172 26348.0
 19 10 2016  04 32  -15.5038 26127.6   3400.2   7.4147 26347.9
 19 10 2016  04 33  -15.5045 26127.1   3399.9   7.4143 26347.4
 19 10 2016  04 34  -15.5032 26126.9   3401.7   7.4181 26347.4
 19 10 2016  04 35  -15.5039 26126.3   3402.0   7.4189 26346.8
 19 10 2016  04 36  -15.5042 26126.1   3400.6   7.4161 26346.5
 19 10 2016  04 37  -15.5031 26126.0   3402.7   7.4205 26346.6
 19 10 2016  04 38  -15.5049 26125.5   3401.1   7.4173 26345.9
 19 10 2016  04 39  -15.5051 26125.5   3399.9   7.4146 26345.8
 19 10 2016  04 40  -15.5054 26124.8   3402.2   7.4198 26345.4
 19 10 2016  04 41  -15.5044 26125.0   3401.9   7.4190 26345.5
 19 10 2016  04 42  -15.5060 26124.6   3400.0   7.4151 26344.9
 19 10 2016  04 43  -15.5051 26124.7   3400.4   7.4160 26345.1
 19 10 2016  04 44  -15.5068 26124.4   3399.9   7.4149 26344.7
 19 10 2016  04 45  -15.5062 26124.7   3401.7   7.4188 26345.2
 19 10 2016  04 46  -15.5056 26124.4   3402.8   7.4213 26345.0
 19 10 2016  04 47  -15.5056 26125.0   3401.9   7.4191 26345.6
 19 10 2016  04 48  -15.5066 26124.8   3401.5   7.4182 26345.3
 19 10 2016  04 49  -15.5083 26124.4   3400.6   7.4164 26344.8
 19 10 2016  04 50  -15.5070 26124.5   3403.4   7.4225 26345.3
 19 10 2016  04 51  -15.5069 26124.5   3402.8   7.4212 26345.2
 19 10 2016  04 52  -15.5074 26124.5   3400.6   7.4165 26344.9
 19 10 2016  04 53  -15.5088 26123.8   3400.2   7.4157 26344.2
 19 10 2016  04 54  -15.5092 26123.4   3400.0   7.4154 26343.7
 19 10 2016  04 55  -15.5074 26123.5   3402.9   7.4217 26344.2
 19 10 2016  04 56  -15.5090 26123.3   3400.8   7.4171 26343.8
 19 10 2016  04 57  -15.5074 26123.4   3403.1   7.4222 26344.2
 19 10 2016  04 58  -15.5084 26123.2   3403.9   7.4238 26344.0
 19 10 2016  04 59  -15.5091 26123.6   3401.4   7.4183 26344.1
 19 10 2016  05 00  -15.5071 26123.7   3403.8   7.4237 26344.5
 19 10 2016  05 01  -15.5078 26123.4   3404.3   7.4246 26344.3
 19 10 2016  05 02  -15.5082 26123.6   3401.3   7.4182 26344.1
 19 10 2016  05 03  -15.5088 26123.3   3401.1   7.4179 26343.8
 19 10 2016  05 04  -15.5077 26123.1   3404.3   7.4248 26344.0
 19 10 2016  05 05  -15.5085 26123.2   3402.4   7.4208 26343.9
 19 10 2016  05 06  -15.5071 26123.5   3403.6   7.4232 26344.3
 19 10 2016  05 07  -15.5080 26123.7   3402.2   7.4202 26344.3
 19 10 2016  05 08  -15.5069 26124.1   3402.8   7.4213 26344.8
 19 10 2016  05 09  -15.5067 26124.1   3403.0   7.4218 26344.8
