Manaus - AM                    UNIVAP-03  <286> 1 Min. Reported data

 DD MM YYYY  HH MM   D(Deg)  H(nT)   Z(nT)   I(Deg)   F(nT)

 12 10 2016  00 00  -15.5051 26138.0   3405.0   7.4221 26358.8
 12 10 2016  00 01  -15.5052 26137.9   3405.5   7.4233 26358.8
 12 10 2016  00 02  -15.5054 26138.0   3405.1   7.4223 26358.8
 12 10 2016  00 03  -15.5050 26138.0   3405.0   7.4221 26358.9
 12 10 2016  00 04  -15.5050 26138.3   3404.7   7.4214 26359.1
 12 10 2016  00 05  -15.5046 26138.2   3404.8   7.4216 26359.0
 12 10 2016  00 06  -15.5043 26138.2   3405.0   7.4220 26359.0
 12 10 2016  00 07  -15.5043 26138.2   3405.3   7.4228 26359.0
 12 10 2016  00 08  -15.5036 26138.3   3405.3   7.4227 26359.2
 12 10 2016  00 09  -15.5036 26138.4   3405.3   7.4227 26359.3
 12 10 2016  00 10  -15.5041 26138.0   3404.9   7.4220 26358.9
 12 10 2016  00 11  -15.5042 26137.7   3405.8   7.4240 26358.6
 12 10 2016  00 12  -15.5035 26138.2   3404.6   7.4212 26359.0
 12 10 2016  00 13  -15.5040 26137.8   3405.4   7.4231 26358.7
 12 10 2016  00 14  -15.5053 26137.1   3404.8   7.4220 26357.9
 12 10 2016  00 15  -15.5039 26137.6   3405.0   7.4223 26358.5
 12 10 2016  00 16  -15.5047 26136.9   3405.2   7.4228 26357.8
 12 10 2016  00 17  -15.5045 26137.0   3405.3   7.4231 26357.9
 12 10 2016  00 18  -15.5049 26136.9   3405.2   7.4228 26357.8
 12 10 2016  00 19  -15.5047 26136.6   3405.7   7.4241 26357.5
 12 10 2016  00 20  -15.5043 26136.7   3405.0   7.4224 26357.6
 12 10 2016  00 21  -15.5035 26136.9   3405.6   7.4237 26357.9
 12 10 2016  00 22  -15.5044 26136.3   3405.5   7.4237 26357.2
 12 10 2016  00 23  -15.5041 26136.8   3405.5   7.4236 26357.8
 12 10 2016  00 24  -15.5047 26136.6   3405.3   7.4231 26357.5
 12 10 2016  00 25  -15.5040 26137.0   3405.2   7.4229 26357.9
 12 10 2016  00 26  -15.5046 26136.8   3405.4   7.4234 26357.8
 12 10 2016  00 27  -15.5045 26137.1   3405.9   7.4243 26358.1
 12 10 2016  00 28  -15.5030 26137.5   3404.7   7.4216 26358.4
 12 10 2016  00 29  -15.5040 26137.9   3405.1   7.4223 26358.7
 12 10 2016  00 30  -15.5030 26137.6   3405.8   7.4240 26358.6
 12 10 2016  00 31  -15.5037 26137.8   3405.9   7.4242 26358.7
 12 10 2016  00 32  -15.5037 26138.2   3404.5   7.4210 26359.0
 12 10 2016  00 33  -15.5037 26137.9   3405.0   7.4222 26358.7
 12 10 2016  00 34  -15.5023 26138.3   3404.4   7.4207 26359.1
 12 10 2016  00 35  -15.5022 26138.2   3404.3   7.4206 26359.0
 12 10 2016  00 36  -15.5045 26137.8   3403.7   7.4194 26358.5
 12 10 2016  00 37  -15.5027 26138.0   3404.9   7.4218 26358.8
 12 10 2016  00 38  -15.5035 26138.1   3403.6   7.4191 26358.7
 12 10 2016  00 39  -15.5043 26137.6   3404.8   7.4218 26358.4
 12 10 2016  00 40  -15.5031 26138.2   3403.8   7.4194 26358.9
 12 10 2016  00 41  -15.5033 26138.0   3404.2   7.4204 26358.7
 12 10 2016  00 42  -15.5023 26137.8   3406.4   7.4251 26358.9
 12 10 2016  00 43  -15.5027 26137.7   3405.4   7.4230 26358.6
 12 10 2016  00 44  -15.5029 26137.3   3403.4   7.4189 26358.0
 12 10 2016  00 45  -15.5037 26136.7   3404.6   7.4216 26357.5
 12 10 2016  00 46  -15.5038 26136.9   3403.4   7.4191 26357.6
 12 10 2016  00 47  -15.5042 26136.7   3404.4   7.4212 26357.5
 12 10 2016  00 48  -15.5038 26137.0   3403.6   7.4193 26357.7
 12 10 2016  00 49  -15.5036 26136.9   3405.4   7.4234 26357.8
 12 10 2016  00 50  -15.5058 26136.3   3404.4   7.4214 26357.0
 12 10 2016  00 51  -15.5059 26136.7   3402.6   7.4174 26357.2
 12 10 2016  00 52  -15.5061 26136.5   3403.3   7.4190 26357.2
 12 10 2016  00 53  -15.5053 26136.3   3405.3   7.4232 26357.2
 12 10 2016  00 54  -15.5056 26136.3   3403.6   7.4195 26357.0
 12 10 2016  00 55  -15.5046 26136.0   3405.8   7.4244 26356.9
 12 10 2016  00 56  -15.5049 26136.1   3404.3   7.4211 26356.8
 12 10 2016  00 57  -15.5042 26136.3   3403.9   7.4202 26357.1
 12 10 2016  00 58  -15.5043 26136.2   3404.4   7.4213 26357.0
 12 10 2016  00 59  -15.5050 26136.1   3403.1   7.4186 26356.7
 12 10 2016  01 00  -15.5049 26135.8   3405.2   7.4232 26356.7
 12 10 2016  01 01  -15.5053 26136.3   3404.4   7.4213 26357.0
 12 10 2016  01 02  -15.5039 26137.1   3404.9   7.4222 26357.9
 12 10 2016  01 03  -15.5032 26137.4   3403.6   7.4193 26358.1
 12 10 2016  01 04  -15.5039 26137.1   3404.0   7.4203 26357.9
 12 10 2016  01 05  -15.5042 26136.9   3405.3   7.4231 26357.8
 12 10 2016  01 06  -15.5035 26137.3   3404.2   7.4206 26358.0
 12 10 2016  01 07  -15.5018 26137.7   3406.0   7.4243 26358.7
 12 10 2016  01 08  -15.5026 26137.7   3405.0   7.4223 26358.6
 12 10 2016  01 09  -15.5023 26137.5   3405.3   7.4229 26358.4
 12 10 2016  01 10  -15.5025 26137.9   3404.4   7.4209 26358.7
 12 10 2016  01 11  -15.5022 26137.8   3406.1   7.4246 26358.8
 12 10 2016  01 12  -15.5016 26138.0   3405.4   7.4231 26358.9
 12 10 2016  01 13  -15.5017 26138.0   3404.3   7.4205 26358.7
 12 10 2016  01 14  -15.5014 26137.9   3405.6   7.4234 26358.9
 12 10 2016  01 15  -15.5008 26138.1   3405.9   7.4240 26359.1
 12 10 2016  01 16  -15.5006 26138.2   3405.2   7.4225 26359.1
 12 10 2016  01 17  -15.4997 26138.2   3405.3   7.4227 26359.1
 12 10 2016  01 18  -15.5001 26138.3   3404.9   7.4218 26359.1
 12 10 2016  01 19  -15.5010 26138.1   3404.3   7.4207 26358.8
 12 10 2016  01 20  -15.4996 26138.3   3404.8   7.4215 26359.1
 12 10 2016  01 21  -15.4999 26137.9   3405.3   7.4227 26358.8
 12 10 2016  01 22  -15.4999 26137.7   3405.3   7.4228 26358.6
 12 10 2016  01 23  -15.4998 26137.7   3405.0   7.4221 26358.6
 12 10 2016  01 24  -15.5006 26137.4   3404.7   7.4216 26358.2
 12 10 2016  01 25  -15.5009 26136.8   3405.9   7.4243 26357.8
 12 10 2016  01 26  -15.4995 26137.2   3405.3   7.4230 26358.1
 12 10 2016  01 27  -15.5010 26137.0   3404.2   7.4208 26357.8
 12 10 2016  01 28  -15.5008 26137.2   3404.2   7.4205 26358.0
 12 10 2016  01 29  -15.5009 26136.9   3405.7   7.4238 26357.8
 12 10 2016  01 30  -15.5016 26136.9   3405.3   7.4231 26357.8
 12 10 2016  01 31  -15.5014 26137.3   3404.6   7.4214 26358.1
 12 10 2016  01 32  -15.5014 26137.3   3404.6   7.4215 26358.1
 12 10 2016  01 33  -15.5010 26137.2   3406.0   7.4244 26358.2
 12 10 2016  01 34  -15.5006 26137.4   3405.1   7.4226 26358.3
 12 10 2016  01 35  -15.5010 26137.4   3405.4   7.4232 26358.3
 12 10 2016  01 36  -15.5009 26137.4   3405.1   7.4225 26358.3
 12 10 2016  01 37  -15.5012 26137.3   3405.2   7.4228 26358.2
 12 10 2016  01 38  -15.5009 26137.4   3404.3   7.4208 26358.2
 12 10 2016  01 39  -15.5003 26137.1   3406.1   7.4246 26358.1
 12 10 2016  01 40  -15.5016 26136.7   3405.0   7.4225 26357.6
 12 10 2016  01 41  -15.5027 26136.3   3404.0   7.4205 26357.1
 12 10 2016  01 42  -15.5027 26136.1   3404.6   7.4217 26357.0
 12 10 2016  01 43  -15.5033 26135.5   3404.6   7.4219 26356.4
 12 10 2016  01 44  -15.5021 26135.5   3405.1   7.4231 26356.4
 12 10 2016  01 45  -15.5026 26135.1   3404.5   7.4219 26355.9
 12 10 2016  01 46  -15.5022 26135.1   3404.5   7.4218 26355.9
 12 10 2016  01 47  -15.5023 26135.0   3403.7   7.4201 26355.7
 12 10 2016  01 48  -15.5021 26135.1   3404.6   7.4221 26355.9
 12 10 2016  01 49  -15.5019 26135.0   3405.0   7.4230 26355.9
 12 10 2016  01 50  -15.5026 26134.7   3404.1   7.4211 26355.5
 12 10 2016  01 51  -15.5023 26134.5   3404.3   7.4215 26355.3
 12 10 2016  01 52  -15.5025 26134.1   3404.4   7.4220 26354.9
 12 10 2016  01 53  -15.5024 26133.9   3404.4   7.4220 26354.7
 12 10 2016  01 54  -15.5023 26134.0   3404.3   7.4218 26354.8
 12 10 2016  01 55  -15.5025 26133.7   3404.4   7.4221 26354.5
 12 10 2016  01 56  -15.5030 26133.5   3404.2   7.4216 26354.3
 12 10 2016  01 57  -15.5028 26133.4   3404.5   7.4222 26354.2
 12 10 2016  01 58  -15.5029 26133.3   3404.3   7.4218 26354.1
 12 10 2016  01 59  -15.5026 26133.3   3404.9   7.4233 26354.2
 12 10 2016  02 00  -15.5031 26133.3   3404.3   7.4219 26354.1
 12 10 2016  02 01  -15.5029 26133.6   3404.5   7.4222 26354.4
 12 10 2016  02 02  -15.5031 26133.4   3404.4   7.4221 26354.2
 12 10 2016  02 03  -15.5031 26133.2   3404.1   7.4215 26354.0
 12 10 2016  02 04  -15.5029 26133.2   3403.7   7.4206 26353.9
 12 10 2016  02 05  -15.5033 26133.0   3403.6   7.4204 26353.7
 12 10 2016  02 06  -15.5037 26132.7   3404.6   7.4228 26353.5
 12 10 2016  02 07  -15.5024 26132.9   3405.7   7.4251 26353.9
 12 10 2016  02 08  -15.5034 26132.8   3404.9   7.4233 26353.6
 12 10 2016  02 09  -15.5046 26132.2   3405.6   7.4250 26353.2
 12 10 2016  02 10  -15.5037 26132.5   3404.9   7.4235 26353.4
 12 10 2016  02 11  -15.5052 26132.3   3403.8   7.4211 26353.0
 12 10 2016  02 12  -15.5043 26132.5   3404.3   7.4222 26353.3
 12 10 2016  02 13  -15.5050 26132.4   3403.8   7.4211 26353.1
 12 10 2016  02 14  -15.5044 26132.4   3404.7   7.4230 26353.2
 12 10 2016  02 15  -15.5044 26132.6   3404.2   7.4220 26353.4
 12 10 2016  02 16  -15.5056 26132.3   3403.8   7.4211 26353.0
 12 10 2016  02 17  -15.5043 26132.8   3403.7   7.4208 26353.6
 12 10 2016  02 18  -15.5047 26132.5   3405.2   7.4241 26353.4
 12 10 2016  02 19  -15.5041 26132.8   3405.3   7.4243 26353.8
 12 10 2016  02 20  -15.5054 26132.7   3403.9   7.4214 26353.4
 12 10 2016  02 21  -15.5047 26132.5   3405.9   7.4256 26353.5
 12 10 2016  02 22  -15.5063 26132.6   3404.2   7.4220 26353.4
 12 10 2016  02 23  -15.5051 26133.1   3404.2   7.4217 26353.9
 12 10 2016  02 24  -15.5051 26133.2   3403.8   7.4210 26354.0
 12 10 2016  02 25  -15.5044 26133.1   3405.6   7.4248 26354.1
 12 10 2016  02 26  -15.5051 26132.7   3405.9   7.4255 26353.7
 12 10 2016  02 27  -15.5052 26133.0   3403.9   7.4211 26353.7
 12 10 2016  02 28  -15.5052 26133.2   3402.7   7.4184 26353.8
 12 10 2016  02 29  -15.5055 26133.1   3403.5   7.4204 26353.8
 12 10 2016  02 30  -15.5058 26133.0   3404.5   7.4225 26353.8
 12 10 2016  02 31  -15.5044 26133.3   3404.4   7.4223 26354.1
 12 10 2016  02 32  -15.5055 26133.0   3405.4   7.4244 26353.9
 12 10 2016  02 33  -15.5046 26133.7   3404.3   7.4218 26354.5
 12 10 2016  02 34  -15.5056 26133.4   3404.9   7.4231 26354.3
 12 10 2016  02 35  -15.5072 26133.1   3402.8   7.4188 26353.7
 12 10 2016  02 36  -15.5061 26133.2   3404.2   7.4217 26354.0
 12 10 2016  02 37  -15.5060 26133.5   3402.7   7.4184 26354.1
 12 10 2016  02 38  -15.5055 26133.9   3403.6   7.4202 26354.6
 12 10 2016  02 39  -15.5049 26133.8   3405.6   7.4245 26354.8
 12 10 2016  02 40  -15.5062 26134.0   3404.9   7.4230 26354.9
 12 10 2016  02 41  -15.5050 26134.4   3405.1   7.4233 26355.3
 12 10 2016  02 42  -15.5055 26134.1   3404.4   7.4219 26354.9
 12 10 2016  02 43  -15.5054 26133.8   3404.7   7.4227 26354.7
 12 10 2016  02 44  -15.5053 26133.8   3405.1   7.4236 26354.7
 12 10 2016  02 45  -15.5051 26134.4   3404.4   7.4219 26355.2
 12 10 2016  02 46  -15.5064 26133.9   3404.4   7.4219 26354.7
 12 10 2016  02 47  -15.5057 26133.7   3403.9   7.4210 26354.4
 12 10 2016  02 48  -15.5055 26133.2   3403.8   7.4209 26354.0
 12 10 2016  02 49  -15.5054 26132.8   3403.1   7.4195 26353.4
 12 10 2016  02 50  -15.5049 26132.2   3403.1   7.4196 26352.9
 12 10 2016  02 51  -15.5051 26131.8   3403.4   7.4205 26352.5
 12 10 2016  02 52  -15.5049 26131.8   3403.4   7.4205 26352.5
 12 10 2016  02 53  -15.5051 26131.7   3402.9   7.4194 26352.4
 12 10 2016  02 54  -15.5048 26131.5   3403.5   7.4206 26352.2
 12 10 2016  02 55  -15.5050 26131.3   3403.4   7.4207 26352.0
 12 10 2016  02 56  -15.5052 26131.1   3403.6   7.4211 26351.9
 12 10 2016  02 57  -15.5053 26131.2   3403.4   7.4206 26351.9
 12 10 2016  02 58  -15.5055 26130.9   3403.5   7.4208 26351.7
 12 10 2016  02 59  -15.5055 26130.8   3403.9   7.4217 26351.5
 12 10 2016  03 00  -15.5057 26130.6   3403.3   7.4206 26351.3
 12 10 2016  03 01  -15.5054 26130.5   3403.7   7.4213 26351.3
 12 10 2016  03 02  -15.5055 26130.1   3403.4   7.4210 26350.8
 12 10 2016  03 03  -15.5054 26130.0   3403.9   7.4221 26350.7
 12 10 2016  03 04  -15.5055 26129.7   3403.8   7.4218 26350.5
 12 10 2016  03 05  -15.5057 26129.6   3403.9   7.4220 26350.4
 12 10 2016  03 06  -15.5058 26129.6   3403.7   7.4216 26350.4
 12 10 2016  03 07  -15.5056 26129.5   3404.3   7.4229 26350.3
 12 10 2016  03 08  -15.5058 26129.5   3404.0   7.4225 26350.3
 12 10 2016  03 09  -15.5050 26129.6   3404.5   7.4235 26350.5
 12 10 2016  03 10  -15.5066 26129.3   3404.4   7.4232 26350.2
 12 10 2016  03 11  -15.5058 26129.6   3404.2   7.4227 26350.5
 12 10 2016  03 12  -15.5056 26129.6   3404.6   7.4235 26350.5
 12 10 2016  03 13  -15.5055 26129.7   3403.9   7.4220 26350.5
 12 10 2016  03 14  -15.5067 26129.2   3404.5   7.4235 26350.1
 12 10 2016  03 15  -15.5057 26129.2   3405.5   7.4257 26350.2
 12 10 2016  03 16  -15.5066 26129.2   3404.9   7.4244 26350.1
 12 10 2016  03 17  -15.5053 26129.3   3405.3   7.4252 26350.3
 12 10 2016  03 18  -15.5063 26129.5   3402.8   7.4198 26350.1
 12 10 2016  03 19  -15.5060 26129.4   3403.9   7.4221 26350.2
 12 10 2016  03 20  -15.5063 26129.2   3405.0   7.4246 26350.1
 12 10 2016  03 21  -15.5058 26129.4   3404.2   7.4228 26350.2
 12 10 2016  03 22  -15.5061 26129.5   3404.1   7.4226 26350.3
 12 10 2016  03 23  -15.5057 26129.6   3404.4   7.4232 26350.5
 12 10 2016  03 24  -15.5066 26129.5   3404.0   7.4223 26350.3
 12 10 2016  03 25  -15.5067 26129.7   3403.5   7.4212 26350.4
 12 10 2016  03 26  -15.5067 26129.6   3403.4   7.4210 26350.3
 12 10 2016  03 27  -15.5071 26129.6   3403.5   7.4214 26350.4
 12 10 2016  03 28  -15.5075 26129.4   3404.4   7.4232 26350.3
 12 10 2016  03 29  -15.5076 26129.7   3402.9   7.4200 26350.4
 12 10 2016  03 30  -15.5078 26129.5   3403.6   7.4216 26350.3
 12 10 2016  03 31  -15.5075 26129.5   3404.9   7.4243 26350.4
 12 10 2016  03 32  -15.5069 26129.8   3405.5   7.4255 26350.8
 12 10 2016  03 33  -15.5058 26130.0   3406.4   7.4274 26351.1
 12 10 2016  03 34  -15.5056 26130.5   3404.5   7.4232 26351.3
 12 10 2016  03 35  -15.5062 26130.2   3405.3   7.4250 26351.2
 12 10 2016  03 36  -15.5061 26130.6   3404.1   7.4222 26351.4
 12 10 2016  03 37  -15.5056 26130.7   3405.1   7.4244 26351.6
 12 10 2016  03 38  -15.5052 26130.9   3404.6   7.4233 26351.7
 12 10 2016  03 39  -15.5050 26130.9   3405.2   7.4245 26351.8
 12 10 2016  03 40  -15.5051 26130.9   3404.9   7.4240 26351.8
 12 10 2016  03 41  -15.5047 26131.2   3404.8   7.4236 26352.1
 12 10 2016  03 42  -15.5041 26131.3   3404.7   7.4233 26352.2
 12 10 2016  03 43  -15.5047 26131.2   3403.5   7.4209 26351.9
 12 10 2016  03 44  -15.5049 26131.0   3404.8   7.4236 26351.9
 12 10 2016  03 45  -15.5047 26131.0   3404.7   7.4235 26351.9
 12 10 2016  03 46  -15.5048 26130.4   3405.0   7.4243 26351.4
 12 10 2016  03 47  -15.5045 26130.6   3404.8   7.4237 26351.5
 12 10 2016  03 48  -15.5055 26130.5   3404.5   7.4230 26351.4
 12 10 2016  03 49  -15.5051 26130.5   3404.9   7.4240 26351.4
 12 10 2016  03 50  -15.5047 26130.5   3405.0   7.4242 26351.4
 12 10 2016  03 51  -15.5059 26130.4   3404.5   7.4232 26351.2
 12 10 2016  03 52  -15.5055 26130.5   3404.5   7.4232 26351.4
 12 10 2016  03 53  -15.5059 26130.3   3405.0   7.4242 26351.2
 12 10 2016  03 54  -15.5057 26130.4   3404.6   7.4234 26351.3
 12 10 2016  03 55  -15.5056 26130.6   3405.2   7.4246 26351.5
 12 10 2016  03 56  -15.5057 26130.8   3404.2   7.4224 26351.6
 12 10 2016  03 57  -15.5072 26130.5   3405.1   7.4246 26351.4
 12 10 2016  03 58  -15.5060 26131.2   3404.9   7.4239 26352.1
 12 10 2016  03 59  -15.5077 26130.6   3404.1   7.4222 26351.4
 12 10 2016  04 00  -15.5069 26130.9   3405.3   7.4247 26351.9
 12 10 2016  04 01  -15.5066 26131.3   3403.8   7.4215 26352.0
 12 10 2016  04 02  -15.5073 26130.9   3404.9   7.4240 26351.8
 12 10 2016  04 03  -15.5062 26130.9   3406.0   7.4263 26352.0
 12 10 2016  04 04  -15.5069 26131.0   3404.0   7.4220 26351.8
 12 10 2016  04 05  -15.5079 26130.7   3404.8   7.4238 26351.5
 12 10 2016  04 06  -15.5073 26130.8   3404.9   7.4239 26351.7
 12 10 2016  04 07  -15.5079 26130.6   3404.8   7.4237 26351.5
 12 10 2016  04 08  -15.5081 26130.6   3404.7   7.4236 26351.5
 12 10 2016  04 09  -15.5084 26130.4   3405.4   7.4251 26351.3
 12 10 2016  04 10  -15.5087 26130.5   3404.0   7.4221 26351.3
 12 10 2016  04 11  -15.5084 26130.4   3405.1   7.4246 26351.4
 12 10 2016  04 12  -15.5089 26130.6   3403.2   7.4203 26351.3
 12 10 2016  04 13  -15.5086 26130.4   3404.5   7.4232 26351.3
 12 10 2016  04 14  -15.5086 26130.3   3404.6   7.4234 26351.2
 12 10 2016  04 15  -15.5085 26130.5   3403.4   7.4208 26351.3
 12 10 2016  04 16  -15.5087 26130.6   3404.2   7.4225 26351.4
 12 10 2016  04 17  -15.5086 26130.2   3406.1   7.4266 26351.2
 12 10 2016  04 18  -15.5095 26130.1   3404.4   7.4231 26351.0
 12 10 2016  04 19  -15.5086 26130.6   3405.4   7.4252 26351.5
 12 10 2016  04 20  -15.5093 26130.5   3405.5   7.4252 26351.4
 12 10 2016  04 21  -15.5091 26130.3   3405.6   7.4256 26351.3
 12 10 2016  04 22  -15.5087 26130.5   3404.9   7.4241 26351.4
 12 10 2016  04 23  -15.5092 26131.1   3404.6   7.4232 26352.0
 12 10 2016  04 24  -15.5089 26130.8   3405.1   7.4244 26351.7
 12 10 2016  04 25  -15.5084 26131.8   3405.7   7.4253 26352.8
 12 10 2016  04 26  -15.5093 26131.1   3405.0   7.4240 26352.0
 12 10 2016  04 27  -15.5076 26131.7   3405.7   7.4254 26352.7
 12 10 2016  04 28  -15.5088 26131.5   3404.2   7.4222 26352.3
 12 10 2016  04 29  -15.5085 26131.7   3405.2   7.4242 26352.6
 12 10 2016  04 30  -15.5087 26132.2   3405.3   7.4245 26353.1
 12 10 2016  04 31  -15.5087 26132.2   3405.1   7.4239 26353.1
 12 10 2016  04 32  -15.5087 26132.0   3404.8   7.4234 26352.9
 12 10 2016  04 33  -15.5088 26132.1   3404.7   7.4232 26353.0
 12 10 2016  04 34  -15.5084 26132.1   3405.0   7.4239 26353.0
 12 10 2016  04 35  -15.5085 26132.2   3404.9   7.4236 26353.1
 12 10 2016  04 36  -15.5085 26132.2   3405.2   7.4241 26353.1
 12 10 2016  04 37  -15.5080 26132.4   3405.2   7.4242 26353.3
 12 10 2016  04 38  -15.5080 26132.8   3405.2   7.4241 26353.7
 12 10 2016  04 39  -15.5078 26132.7   3405.2   7.4241 26353.6
 12 10 2016  04 40  -15.5075 26132.7   3405.2   7.4241 26353.6
 12 10 2016  04 41  -15.5073 26132.4   3405.6   7.4249 26353.3
 12 10 2016  04 42  -15.5071 26132.2   3405.1   7.4240 26353.1
 12 10 2016  04 43  -15.5059 26132.0   3405.8   7.4254 26353.0
 12 10 2016  04 44  -15.5064 26131.4   3403.7   7.4213 26352.1
 12 10 2016  04 45  -15.5055 26130.9   3404.3   7.4226 26351.7
 12 10 2016  04 46  -15.5059 26130.4   3404.1   7.4223 26351.2
 12 10 2016  04 47  -15.5059 26130.2   3404.1   7.4224 26351.0
 12 10 2016  04 48  -15.5058 26130.2   3404.2   7.4227 26351.0
 12 10 2016  04 49  -15.5055 26129.8   3404.4   7.4231 26350.7
 12 10 2016  04 50  -15.5058 26129.8   3404.0   7.4222 26350.5
 12 10 2016  04 51  -15.5061 26129.8   3404.5   7.4234 26350.7
 12 10 2016  04 52  -15.5055 26130.0   3405.1   7.4246 26351.0
 12 10 2016  04 53  -15.5054 26130.1   3405.0   7.4243 26351.0
 12 10 2016  04 54  -15.5054 26130.2   3405.1   7.4246 26351.2
 12 10 2016  04 55  -15.5053 26130.2   3405.1   7.4246 26351.2
 12 10 2016  04 56  -15.5053 26130.1   3404.9   7.4241 26351.0
 12 10 2016  04 57  -15.5052 26129.9   3405.2   7.4248 26350.8
 12 10 2016  04 58  -15.5049 26130.0   3405.0   7.4245 26350.9
 12 10 2016  04 59  -15.5052 26129.7   3404.7   7.4239 26350.6
 12 10 2016  05 00  -15.5051 26129.7   3404.6   7.4235 26350.6
 12 10 2016  05 01  -15.5058 26129.5   3405.3   7.4253 26350.4
 12 10 2016  05 02  -15.5047 26130.2   3404.7   7.4236 26351.0
 12 10 2016  05 03  -15.5058 26129.7   3404.5   7.4234 26350.6
 12 10 2016  05 04  -15.5057 26129.5   3405.7   7.4260 26350.6
 12 10 2016  05 05  -15.5054 26130.2   3405.8   7.4261 26351.3
 12 10 2016  05 06  -15.5059 26129.9   3405.7   7.4260 26350.9
 12 10 2016  05 07  -15.5056 26130.4   3404.9   7.4240 26351.3
 12 10 2016  05 08  -15.5073 26130.4   3404.2   7.4225 26351.2
 12 10 2016  05 09  -15.5063 26131.1   3405.6   7.4254 26352.1
