Manaus - AM                    UNIVAP-03  <294> 1 Min. Reported data

 DD MM YYYY  HH MM   D(Deg)  H(nT)   Z(nT)   I(Deg)   F(nT)

 20 10 2016  00 00  -15.5067 26130.1   3404.4   7.4231 26350.9
 20 10 2016  00 01  -15.5070 26129.9   3404.6   7.4235 26350.7
 20 10 2016  00 02  -15.5071 26129.8   3404.6   7.4235 26350.7
 20 10 2016  00 03  -15.5072 26130.1   3404.8   7.4238 26351.0
 20 10 2016  00 04  -15.5075 26130.1   3405.0   7.4244 26351.0
 20 10 2016  00 05  -15.5076 26130.1   3404.8   7.4239 26351.0
 20 10 2016  00 06  -15.5080 26129.9   3405.0   7.4243 26350.8
 20 10 2016  00 07  -15.5082 26129.7   3404.3   7.4230 26350.5
 20 10 2016  00 08  -15.5077 26129.8   3404.7   7.4238 26350.7
 20 10 2016  00 09  -15.5077 26129.9   3405.0   7.4243 26350.8
 20 10 2016  00 10  -15.5076 26130.1   3405.2   7.4248 26351.1
 20 10 2016  00 11  -15.5077 26130.2   3405.1   7.4244 26351.2
 20 10 2016  00 12  -15.5079 26130.1   3405.5   7.4255 26351.0
 20 10 2016  00 13  -15.5078 26130.3   3405.2   7.4248 26351.2
 20 10 2016  00 14  -15.5085 26130.2   3405.1   7.4246 26351.1
 20 10 2016  00 15  -15.5074 26130.6   3405.4   7.4251 26351.5
 20 10 2016  00 16  -15.5076 26130.8   3405.3   7.4248 26351.7
 20 10 2016  00 17  -15.5066 26131.1   3407.4   7.4293 26352.3
 20 10 2016  00 18  -15.5079 26131.4   3405.1   7.4241 26352.3
 20 10 2016  00 19  -15.5072 26131.8   3406.2   7.4264 26352.9
 20 10 2016  00 20  -15.5071 26132.3   3407.0   7.4280 26353.5
 20 10 2016  00 21  -15.5076 26133.2   3404.8   7.4231 26354.0
 20 10 2016  00 22  -15.5063 26134.0   3406.8   7.4271 26355.1
 20 10 2016  00 23  -15.5068 26134.1   3407.7   7.4290 26355.4
 20 10 2016  00 24  -15.5089 26134.2   3405.0   7.4232 26355.1
 20 10 2016  00 25  -15.5077 26134.7   3405.8   7.4247 26355.6
 20 10 2016  00 26  -15.5058 26134.4   3407.3   7.4280 26355.6
 20 10 2016  00 27  -15.5052 26133.5   3406.5   7.4267 26354.6
 20 10 2016  00 28  -15.5065 26132.5   3405.2   7.4240 26353.4
 20 10 2016  00 29  -15.5053 26132.2   3405.2   7.4242 26353.1
 20 10 2016  00 30  -15.5057 26132.2   3404.1   7.4218 26353.0
 20 10 2016  00 31  -15.5050 26132.1   3404.9   7.4237 26353.0
 20 10 2016  00 32  -15.5050 26131.6   3404.4   7.4226 26352.4
 20 10 2016  00 33  -15.5041 26130.9   3404.8   7.4238 26351.8
 20 10 2016  00 34  -15.5041 26130.5   3404.3   7.4227 26351.3
 20 10 2016  00 35  -15.5032 26130.2   3405.4   7.4253 26351.2
 20 10 2016  00 36  -15.5035 26130.1   3404.6   7.4234 26351.0
 20 10 2016  00 37  -15.5025 26130.2   3405.0   7.4242 26351.1
 20 10 2016  00 38  -15.5032 26129.4   3405.4   7.4255 26350.4
 20 10 2016  00 39  -15.5028 26129.1   3406.0   7.4267 26350.1
 20 10 2016  00 40  -15.5033 26128.8   3405.6   7.4260 26349.8
 20 10 2016  00 41  -15.5030 26128.9   3404.1   7.4228 26349.7
 20 10 2016  00 42  -15.5030 26128.8   3404.4   7.4235 26349.6
 20 10 2016  00 43  -15.5025 26129.0   3403.5   7.4215 26349.8
 20 10 2016  00 44  -15.5025 26128.8   3405.0   7.4246 26349.7
 20 10 2016  00 45  -15.5025 26128.9   3405.2   7.4251 26349.8
 20 10 2016  00 46  -15.5021 26129.2   3405.0   7.4247 26350.1
 20 10 2016  00 47  -15.5038 26129.0   3404.6   7.4238 26349.9
 20 10 2016  00 48  -15.5032 26129.3   3406.4   7.4275 26350.4
 20 10 2016  00 49  -15.5041 26129.6   3405.8   7.4263 26350.7
 20 10 2016  00 50  -15.5035 26130.3   3405.4   7.4252 26351.3
 20 10 2016  00 51  -15.5032 26130.5   3406.5   7.4275 26351.6
 20 10 2016  00 52  -15.5025 26130.9   3406.8   7.4280 26352.1
 20 10 2016  00 53  -15.5034 26131.4   3405.4   7.4249 26352.4
 20 10 2016  00 54  -15.5047 26131.1   3404.7   7.4233 26351.9
 20 10 2016  00 55  -15.5034 26131.0   3405.4   7.4250 26352.0
 20 10 2016  00 56  -15.5036 26130.4   3404.9   7.4239 26351.3
 20 10 2016  00 57  -15.5029 26130.2   3405.0   7.4242 26351.1
 20 10 2016  00 58  -15.5036 26129.3   3405.2   7.4251 26350.3
 20 10 2016  00 59  -15.5047 26128.6   3405.9   7.4267 26349.7
 20 10 2016  01 00  -15.5045 26128.5   3403.6   7.4217 26349.2
 20 10 2016  01 01  -15.5043 26127.9   3404.4   7.4238 26348.7
 20 10 2016  01 02  -15.5038 26127.5   3404.0   7.4230 26348.4
 20 10 2016  01 03  -15.5033 26127.3   3404.4   7.4237 26348.2
 20 10 2016  01 04  -15.5036 26127.0   3404.8   7.4248 26348.0
 20 10 2016  01 05  -15.5034 26127.0   3404.6   7.4244 26347.9
 20 10 2016  01 06  -15.5025 26127.0   3405.0   7.4252 26347.9
 20 10 2016  01 07  -15.5028 26126.7   3404.9   7.4250 26347.6
 20 10 2016  01 08  -15.5043 26126.5   3403.3   7.4218 26347.2
 20 10 2016  01 09  -15.5040 26126.3   3404.7   7.4248 26347.2
 20 10 2016  01 10  -15.5037 26126.5   3404.1   7.4234 26347.3
 20 10 2016  01 11  -15.5042 26126.2   3405.1   7.4256 26347.1
 20 10 2016  01 12  -15.5044 26126.2   3405.5   7.4265 26347.2
 20 10 2016  01 13  -15.5058 26126.0   3404.5   7.4243 26346.9
 20 10 2016  01 14  -15.5042 26126.1   3407.3   7.4304 26347.3
 20 10 2016  01 15  -15.5057 26125.8   3405.6   7.4268 26346.8
 20 10 2016  01 16  -15.5057 26125.8   3405.4   7.4264 26346.8
 20 10 2016  01 17  -15.5045 26126.1   3405.3   7.4260 26347.1
 20 10 2016  01 18  -15.5046 26125.8   3407.5   7.4310 26347.0
 20 10 2016  01 19  -15.5058 26125.8   3405.5   7.4267 26346.8
 20 10 2016  01 20  -15.5066 26125.3   3406.1   7.4281 26346.4
 20 10 2016  01 21  -15.5059 26125.8   3405.4   7.4265 26346.8
 20 10 2016  01 22  -15.5061 26125.7   3405.7   7.4272 26346.7
 20 10 2016  01 23  -15.5063 26125.9   3404.8   7.4250 26346.8
 20 10 2016  01 24  -15.5073 26125.6   3405.0   7.4256 26346.5
 20 10 2016  01 25  -15.5068 26125.7   3405.5   7.4266 26346.7
 20 10 2016  01 26  -15.5074 26125.4   3406.4   7.4287 26346.6
 20 10 2016  01 27  -15.5066 26125.8   3405.1   7.4257 26346.8
 20 10 2016  01 28  -15.5068 26125.4   3406.0   7.4278 26346.5
 20 10 2016  01 29  -15.5065 26125.7   3404.8   7.4252 26346.6
 20 10 2016  01 30  -15.5064 26125.4   3405.5   7.4268 26346.4
 20 10 2016  01 31  -15.5063 26125.1   3406.5   7.4290 26346.2
 20 10 2016  01 32  -15.5067 26125.3   3404.9   7.4255 26346.2
 20 10 2016  01 33  -15.5066 26125.0   3406.9   7.4299 26346.2
 20 10 2016  01 34  -15.5069 26125.5   3405.6   7.4269 26346.5
 20 10 2016  01 35  -15.5053 26125.8   3406.8   7.4294 26347.0
 20 10 2016  01 36  -15.5046 26125.9   3407.9   7.4318 26347.3
 20 10 2016  01 37  -15.5042 26126.0   3407.1   7.4301 26347.2
 20 10 2016  01 38  -15.5057 26125.7   3406.0   7.4278 26346.8
 20 10 2016  01 39  -15.5044 26125.8   3405.9   7.4275 26346.9
 20 10 2016  01 40  -15.5045 26125.8   3404.9   7.4253 26346.8
 20 10 2016  01 41  -15.5052 26125.2   3405.8   7.4274 26346.3
 20 10 2016  01 42  -15.5047 26125.3   3406.3   7.4284 26346.5
 20 10 2016  01 43  -15.5054 26124.8   3406.8   7.4297 26346.0
 20 10 2016  01 44  -15.5046 26125.3   3405.7   7.4272 26346.4
 20 10 2016  01 45  -15.5061 26125.1   3405.3   7.4265 26346.1
 20 10 2016  01 46  -15.5042 26125.4   3408.2   7.4325 26346.8
 20 10 2016  01 47  -15.5058 26125.0   3406.8   7.4296 26346.2
 20 10 2016  01 48  -15.5051 26125.4   3407.0   7.4299 26346.6
 20 10 2016  01 49  -15.5040 26125.6   3407.7   7.4313 26346.9
 20 10 2016  01 50  -15.5051 26125.4   3405.7   7.4272 26346.5
 20 10 2016  01 51  -15.5052 26125.2   3406.1   7.4281 26346.3
 20 10 2016  01 52  -15.5063 26125.0   3404.6   7.4249 26345.9
 20 10 2016  01 53  -15.5049 26125.3   3406.8   7.4296 26346.5
 20 10 2016  01 54  -15.5052 26125.2   3405.8   7.4274 26346.3
 20 10 2016  01 55  -15.5049 26125.3   3407.4   7.4308 26346.6
 20 10 2016  01 56  -15.5055 26125.4   3405.4   7.4265 26346.4
 20 10 2016  01 57  -15.5055 26125.6   3405.7   7.4271 26346.7
 20 10 2016  01 58  -15.5061 26125.5   3405.9   7.4277 26346.6
 20 10 2016  01 59  -15.5056 26126.0   3405.9   7.4275 26347.1
 20 10 2016  02 00  -15.5052 26126.1   3406.6   7.4289 26347.3
 20 10 2016  02 01  -15.5060 26126.4   3404.8   7.4251 26347.3
 20 10 2016  02 02  -15.5065 26126.3   3405.9   7.4273 26347.4
 20 10 2016  02 03  -15.5047 26126.9   3407.6   7.4308 26348.2
 20 10 2016  02 04  -15.5038 26127.4   3406.9   7.4292 26348.6
 20 10 2016  02 05  -15.5046 26127.3   3406.2   7.4278 26348.4
 20 10 2016  02 06  -15.5054 26127.0   3406.9   7.4294 26348.2
 20 10 2016  02 07  -15.5050 26127.3   3406.2   7.4277 26348.4
 20 10 2016  02 08  -15.5051 26127.4   3405.7   7.4265 26348.4
 20 10 2016  02 09  -15.5059 26127.1   3406.0   7.4274 26348.2
 20 10 2016  02 10  -15.5058 26127.1   3405.9   7.4271 26348.2
 20 10 2016  02 11  -15.5060 26126.9   3406.1   7.4275 26348.0
 20 10 2016  02 12  -15.5061 26127.1   3404.9   7.4250 26348.1
 20 10 2016  02 13  -15.5074 26126.9   3404.3   7.4237 26347.7
 20 10 2016  02 14  -15.5068 26127.1   3404.6   7.4243 26347.9
 20 10 2016  02 15  -15.5055 26127.0   3406.9   7.4293 26348.2
 20 10 2016  02 16  -15.5068 26126.9   3405.4   7.4261 26347.9
 20 10 2016  02 17  -15.5062 26127.0   3406.1   7.4277 26348.1
 20 10 2016  02 18  -15.5059 26127.1   3405.5   7.4264 26348.1
 20 10 2016  02 19  -15.5054 26127.5   3405.2   7.4256 26348.4
 20 10 2016  02 20  -15.5060 26127.2   3405.7   7.4266 26348.2
 20 10 2016  02 21  -15.5058 26127.1   3407.1   7.4298 26348.3
 20 10 2016  02 22  -15.5065 26127.0   3406.5   7.4285 26348.1
 20 10 2016  02 23  -15.5051 26127.6   3406.3   7.4279 26348.7
 20 10 2016  02 24  -15.5064 26127.1   3406.1   7.4275 26348.2
 20 10 2016  02 25  -15.5048 26127.7   3406.2   7.4275 26348.8
 20 10 2016  02 26  -15.5043 26127.8   3407.7   7.4308 26349.1
 20 10 2016  02 27  -15.5047 26128.1   3406.3   7.4278 26349.2
 20 10 2016  02 28  -15.5062 26127.8   3405.2   7.4253 26348.8
 20 10 2016  02 29  -15.5057 26128.1   3405.9   7.4268 26349.2
 20 10 2016  02 30  -15.5052 26128.4   3405.6   7.4262 26349.4
 20 10 2016  02 31  -15.5044 26128.3   3406.8   7.4287 26349.4
 20 10 2016  02 32  -15.5060 26127.7   3404.8   7.4246 26348.7
 20 10 2016  02 33  -15.5055 26127.3   3405.7   7.4267 26348.3
 20 10 2016  02 34  -15.5062 26126.4   3406.2   7.4280 26347.5
 20 10 2016  02 35  -15.5063 26126.5   3404.3   7.4239 26347.3
 20 10 2016  02 36  -15.5060 26126.3   3404.5   7.4243 26347.2
 20 10 2016  02 37  -15.5058 26126.1   3406.9   7.4297 26347.3
 20 10 2016  02 38  -15.5071 26126.1   3405.4   7.4264 26347.1
 20 10 2016  02 39  -15.5062 26126.8   3404.9   7.4250 26347.7
 20 10 2016  02 40  -15.5062 26126.7   3406.6   7.4286 26347.9
 20 10 2016  02 41  -15.5080 26126.5   3405.2   7.4258 26347.5
 20 10 2016  02 42  -15.5059 26126.9   3406.7   7.4288 26348.1
 20 10 2016  02 43  -15.5078 26126.8   3404.0   7.4230 26347.6
 20 10 2016  02 44  -15.5078 26126.7   3404.9   7.4251 26347.6
 20 10 2016  02 45  -15.5073 26126.7   3406.3   7.4281 26347.8
 20 10 2016  02 46  -15.5062 26127.4   3405.3   7.4257 26348.4
 20 10 2016  02 47  -15.5062 26127.2   3407.4   7.4303 26348.5
 20 10 2016  02 48  -15.5072 26127.3   3405.7   7.4266 26348.3
 20 10 2016  02 49  -15.5070 26127.3   3406.3   7.4278 26348.4
 20 10 2016  02 50  -15.5090 26126.7   3404.9   7.4250 26347.7
 20 10 2016  02 51  -15.5069 26126.9   3407.5   7.4307 26348.2
 20 10 2016  02 52  -15.5079 26126.6   3407.1   7.4298 26347.8
 20 10 2016  02 53  -15.5075 26126.9   3405.3   7.4258 26347.9
 20 10 2016  02 54  -15.5068 26126.9   3406.2   7.4279 26348.0
 20 10 2016  02 55  -15.5070 26127.0   3405.3   7.4259 26348.0
 20 10 2016  02 56  -15.5073 26126.9   3406.0   7.4274 26348.0
 20 10 2016  02 57  -15.5062 26127.1   3407.4   7.4304 26348.3
 20 10 2016  02 58  -15.5064 26127.3   3406.1   7.4275 26348.4
 20 10 2016  02 59  -15.5061 26127.5   3405.6   7.4264 26348.5
 20 10 2016  03 00  -15.5062 26127.3   3405.8   7.4269 26348.4
 20 10 2016  03 01  -15.5064 26127.2   3405.6   7.4265 26348.2
 20 10 2016  03 02  -15.5058 26127.2   3405.9   7.4271 26348.3
 20 10 2016  03 03  -15.5061 26127.2   3405.2   7.4256 26348.2
 20 10 2016  03 04  -15.5055 26127.3   3405.9   7.4270 26348.3
 20 10 2016  03 05  -15.5058 26127.3   3405.6   7.4265 26348.3
 20 10 2016  03 06  -15.5052 26127.3   3406.7   7.4288 26348.5
 20 10 2016  03 07  -15.5055 26127.4   3405.8   7.4268 26348.4
 20 10 2016  03 08  -15.5055 26127.5   3405.4   7.4259 26348.4
 20 10 2016  03 09  -15.5045 26127.4   3407.6   7.4308 26348.7
 20 10 2016  03 10  -15.5050 26127.2   3407.6   7.4308 26348.4
 20 10 2016  03 11  -15.5047 26127.7   3405.3   7.4257 26348.7
 20 10 2016  03 12  -15.5062 26127.4   3404.6   7.4242 26348.3
 20 10 2016  03 13  -15.5052 26127.5   3405.9   7.4271 26348.6
 20 10 2016  03 14  -15.5053 26127.7   3404.5   7.4240 26348.6
 20 10 2016  03 15  -15.5046 26127.8   3404.9   7.4247 26348.8
 20 10 2016  03 16  -15.5049 26127.7   3404.7   7.4245 26348.6
 20 10 2016  03 17  -15.5044 26127.6   3406.4   7.4280 26348.7
 20 10 2016  03 18  -15.5050 26127.5   3405.4   7.4259 26348.5
 20 10 2016  03 19  -15.5040 26127.7   3406.3   7.4279 26348.9
 20 10 2016  03 20  -15.5041 26128.1   3405.0   7.4250 26349.0
 20 10 2016  03 21  -15.5044 26127.9   3406.0   7.4271 26349.0
 20 10 2016  03 22  -15.5053 26127.8   3406.0   7.4272 26348.9
 20 10 2016  03 23  -15.5053 26127.9   3406.2   7.4275 26349.0
 20 10 2016  03 24  -15.5052 26128.2   3405.5   7.4260 26349.2
 20 10 2016  03 25  -15.5041 26128.3   3407.3   7.4297 26349.5
 20 10 2016  03 26  -15.5053 26128.3   3405.3   7.4255 26349.2
 20 10 2016  03 27  -15.5060 26128.3   3404.0   7.4227 26349.1
 20 10 2016  03 28  -15.5042 26128.6   3405.6   7.4261 26349.6
 20 10 2016  03 29  -15.5047 26128.5   3405.0   7.4249 26349.4
 20 10 2016  03 30  -15.5062 26127.9   3405.0   7.4250 26348.8
 20 10 2016  03 31  -15.5063 26127.8   3404.6   7.4240 26348.7
 20 10 2016  03 32  -15.5045 26128.0   3406.5   7.4283 26349.1
 20 10 2016  03 33  -15.5061 26127.4   3406.2   7.4276 26348.5
 20 10 2016  03 34  -15.5065 26127.6   3404.4   7.4238 26348.4
 20 10 2016  03 35  -15.5054 26127.9   3404.7   7.4244 26348.8
 20 10 2016  03 36  -15.5052 26127.8   3405.8   7.4268 26348.8
 20 10 2016  03 37  -15.5058 26127.8   3404.4   7.4236 26348.7
 20 10 2016  03 38  -15.5041 26128.1   3406.4   7.4279 26349.2
 20 10 2016  03 39  -15.5058 26127.9   3404.5   7.4240 26348.8
 20 10 2016  03 40  -15.5051 26127.8   3407.3   7.4300 26349.0
 20 10 2016  03 41  -15.5041 26128.3   3407.0   7.4291 26349.5
 20 10 2016  03 42  -15.5047 26128.6   3404.8   7.4244 26349.5
 20 10 2016  03 43  -15.5046 26128.7   3404.8   7.4243 26349.6
 20 10 2016  03 44  -15.5056 26128.3   3405.4   7.4257 26349.3
 20 10 2016  03 45  -15.5057 26128.4   3405.5   7.4260 26349.4
 20 10 2016  03 46  -15.5069 26128.2   3405.0   7.4249 26349.2
 20 10 2016  03 47  -15.5066 26128.4   3404.6   7.4241 26349.3
 20 10 2016  03 48  -15.5063 26128.4   3405.0   7.4248 26349.4
 20 10 2016  03 49  -15.5069 26128.6   3403.9   7.4223 26349.3
 20 10 2016  03 50  -15.5080 26128.2   3404.2   7.4232 26349.0
 20 10 2016  03 51  -15.5072 26128.2   3405.7   7.4265 26349.3
 20 10 2016  03 52  -15.5058 26128.7   3405.9   7.4268 26349.8
 20 10 2016  03 53  -15.5061 26129.0   3404.0   7.4225 26349.8
 20 10 2016  03 54  -15.5064 26129.0   3405.0   7.4247 26350.0
 20 10 2016  03 55  -15.5068 26129.2   3404.1   7.4226 26350.0
 20 10 2016  03 56  -15.5080 26128.7   3404.9   7.4244 26349.6
 20 10 2016  03 57  -15.5063 26129.0   3405.9   7.4267 26350.1
 20 10 2016  03 58  -15.5056 26129.5   3405.3   7.4252 26350.4
 20 10 2016  03 59  -15.5070 26129.4   3405.1   7.4247 26350.3
 20 10 2016  04 00  -15.5063 26129.6   3406.4   7.4275 26350.7
 20 10 2016  04 01  -15.5071 26129.7   3406.3   7.4273 26350.8
 20 10 2016  04 02  -15.5057 26130.2   3407.2   7.4290 26351.4
 20 10 2016  04 03  -15.5055 26130.4   3406.8   7.4282 26351.6
 20 10 2016  04 04  -15.5073 26130.4   3403.4   7.4208 26351.1
 20 10 2016  04 05  -15.5076 26130.1   3403.8   7.4218 26350.8
 20 10 2016  04 06  -15.5077 26129.5   3405.6   7.4259 26350.5
 20 10 2016  04 07  -15.5061 26129.6   3406.0   7.4266 26350.7
 20 10 2016  04 08  -15.5073 26129.2   3404.2   7.4228 26350.0
 20 10 2016  04 09  -15.5063 26128.9   3406.0   7.4268 26350.0
 20 10 2016  04 10  -15.5063 26128.8   3405.2   7.4252 26349.8
 20 10 2016  04 11  -15.5073 26128.6   3404.2   7.4231 26349.5
 20 10 2016  04 12  -15.5077 26128.5   3403.9   7.4225 26349.3
 20 10 2016  04 13  -15.5064 26128.7   3405.6   7.4261 26349.7
 20 10 2016  04 14  -15.5074 26128.9   3403.3   7.4211 26349.6
 20 10 2016  04 15  -15.5075 26129.2   3403.8   7.4219 26349.9
 20 10 2016  04 16  -15.5064 26129.7   3404.9   7.4242 26350.6
 20 10 2016  04 17  -15.5069 26129.8   3404.9   7.4242 26350.7
 20 10 2016  04 18  -15.5052 26130.3   3406.5   7.4274 26351.4
 20 10 2016  04 19  -15.5067 26130.0   3406.3   7.4272 26351.1
 20 10 2016  04 20  -15.5080 26130.1   3404.7   7.4237 26350.9
 20 10 2016  04 21  -15.5074 26130.6   3403.4   7.4207 26351.3
 20 10 2016  04 22  -15.5075 26130.5   3404.7   7.4236 26351.4
 20 10 2016  04 23  -15.5064 26130.8   3405.0   7.4241 26351.7
 20 10 2016  04 24  -15.5069 26130.7   3405.0   7.4242 26351.6
 20 10 2016  04 25  -15.5059 26130.9   3405.8   7.4259 26351.9
 20 10 2016  04 26  -15.5069 26130.8   3404.0   7.4221 26351.6
 20 10 2016  04 27  -15.5068 26130.6   3405.0   7.4241 26351.6
 20 10 2016  04 28  -15.5069 26130.8   3404.4   7.4229 26351.6
 20 10 2016  04 29  -15.5056 26131.2   3405.6   7.4252 26352.2
 20 10 2016  04 30  -15.5065 26131.4   3404.2   7.4222 26352.2
 20 10 2016  04 31  -15.5050 26131.6   3406.9   7.4280 26352.7
 20 10 2016  04 32  -15.5072 26131.3   3405.3   7.4246 26352.2
 20 10 2016  04 33  -15.5061 26131.4   3406.5   7.4271 26352.5
 20 10 2016  04 34  -15.5048 26131.8   3406.2   7.4265 26352.8
 20 10 2016  04 35  -15.5055 26131.2   3406.6   7.4274 26352.4
 20 10 2016  04 36  -15.5074 26130.9   3404.2   7.4223 26351.7
 20 10 2016  04 37  -15.5075 26130.7   3404.1   7.4223 26351.5
 20 10 2016  04 38  -15.5073 26130.6   3404.4   7.4228 26351.4
 20 10 2016  04 39  -15.5073 26130.5   3404.6   7.4233 26351.3
 20 10 2016  04 40  -15.5065 26130.5   3405.5   7.4254 26351.5
 20 10 2016  04 41  -15.5075 26130.4   3404.0   7.4221 26351.2
 20 10 2016  04 42  -15.5075 26130.3   3403.6   7.4212 26351.1
 20 10 2016  04 43  -15.5059 26130.6   3404.9   7.4241 26351.5
 20 10 2016  04 44  -15.5068 26130.7   3403.1   7.4201 26351.4
 20 10 2016  04 45  -15.5068 26130.7   3405.5   7.4253 26351.6
 20 10 2016  04 46  -15.5067 26131.2   3404.6   7.4233 26352.0
 20 10 2016  04 47  -15.5065 26131.4   3404.3   7.4224 26352.2
 20 10 2016  04 48  -15.5073 26131.2   3403.1   7.4200 26351.9
 20 10 2016  04 49  -15.5075 26131.0   3403.5   7.4208 26351.7
 20 10 2016  04 50  -15.5059 26131.1   3406.4   7.4270 26352.2
 20 10 2016  04 51  -15.5060 26131.5   3403.7   7.4212 26352.3
 20 10 2016  04 52  -15.5076 26131.0   3403.3   7.4205 26351.7
 20 10 2016  04 53  -15.5054 26131.4   3405.5   7.4250 26352.3
 20 10 2016  04 54  -15.5075 26131.0   3403.5   7.4208 26351.7
 20 10 2016  04 55  -15.5064 26130.8   3405.8   7.4258 26351.8
 20 10 2016  04 56  -15.5052 26131.1   3406.5   7.4273 26352.2
 20 10 2016  04 57  -15.5067 26130.8   3406.0   7.4264 26351.8
 20 10 2016  04 58  -15.5069 26130.8   3406.1   7.4265 26351.8
 20 10 2016  04 59  -15.5069 26131.0   3405.0   7.4240 26351.9
 20 10 2016  05 00  -15.5057 26131.1   3406.8   7.4279 26352.2
 20 10 2016  05 01  -15.5054 26131.4   3406.0   7.4262 26352.4
 20 10 2016  05 02  -15.5066 26131.2   3404.9   7.4239 26352.1
 20 10 2016  05 03  -15.5063 26130.9   3406.9   7.4282 26352.1
 20 10 2016  05 04  -15.5066 26131.1   3405.8   7.4258 26352.1
 20 10 2016  05 05  -15.5062 26131.3   3405.2   7.4245 26352.2
 20 10 2016  05 06  -15.5070 26130.9   3406.1   7.4264 26351.9
 20 10 2016  05 07  -15.5068 26131.2   3404.0   7.4219 26352.0
 20 10 2016  05 08  -15.5066 26131.2   3404.3   7.4225 26352.0
 20 10 2016  05 09  -15.5073 26130.7   3405.9   7.4261 26351.8
